Time (s)	Motor Command (V)	Desired Position  (V)	Actual Position (V)
0.003	10.000	2.020	1.971
0.054	0.000	2.020	1.965
0.103	8.589	2.020	1.968
0.154	7.912	2.020	1.968
0.203	7.979	2.020	1.966
0.253	8.374	2.020	1.964
0.303	8.666	2.020	1.968
0.352	7.898	2.020	1.965
0.403	8.433	2.020	1.967
0.453	8.047	2.020	1.962
0.503	8.930	2.020	1.967
0.553	8.104	2.020	1.966
0.603	8.247	2.020	1.969
0.653	7.849	2.020	1.968
0.703	8.008	2.020	1.968
0.753	7.997	2.020	1.968
0.803	7.999	2.020	1.967
0.853	8.224	2.020	1.966
0.903	8.368	2.020	1.971
0.953	7.509	2.020	1.971
1.003	7.608	2.020	1.971
1.053	7.554	2.020	1.966
1.103	8.459	2.020	1.969
1.153	7.795	2.020	1.970
1.204	7.694	2.020	1.969
1.254	7.883	2.020	1.971
1.303	7.584	2.020	1.969
1.354	7.843	2.020	1.969
1.404	7.875	2.020	1.971
1.454	7.589	2.020	1.969
1.504	7.904	2.020	1.970
1.555	7.761	2.020	1.970
1.605	7.775	2.020	1.956
1.655	10.000	2.020	1.968
1.706	7.784	2.020	1.966
1.756	8.365	2.020	1.968
1.806	7.991	2.020	1.970
1.856	7.751	2.020	1.968
1.907	8.009	2.020	1.969
1.957	7.816	2.020	1.957
2.007	10.000	2.020	1.955
2.057	10.000	2.020	1.964
2.108	8.393	2.020	1.965
2.157	8.474	2.020	1.968
2.207	7.984	2.020	1.968
2.258	8.101	2.020	1.964
2.308	8.713	2.020	1.969
2.357	7.745	2.020	1.968
2.408	8.075	2.020	1.968
2.458	8.107	2.020	1.971
2.507	7.540	2.020	1.970
2.557	7.720	2.020	1.967
2.607	8.269	2.020	1.973
2.657	7.084	2.020	1.971
2.708	7.663	2.020	1.973
2.758	7.333	2.020	1.973
2.807	7.311	2.020	1.973
2.857	7.319	2.020	1.973
2.907	7.264	2.020	1.973
2.957	7.272	2.020	1.971
3.008	7.722	2.020	1.971
3.058	7.560	2.020	1.973
3.108	7.350	2.020	1.972
3.158	7.489	2.020	1.970
3.209	7.758	2.020	1.966
3.259	8.513	2.020	1.971
3.308	7.469	2.020	1.972
3.359	7.526	2.020	1.971
3.409	7.702	2.020	1.972
3.458	7.515	2.020	1.973
3.509	7.369	2.020	1.973
3.559	7.333	2.020	1.969
3.609	7.958	2.020	1.964
3.659	8.729	2.020	1.972
3.709	7.399	2.020	1.972
3.759	7.544	2.020	1.970
3.809	7.826	2.020	1.965
3.860	8.578	2.020	1.973
3.909	7.197	2.020	1.967
3.959	8.417	2.020	1.973
4.009	7.117	2.020	1.971
4.058	7.649	2.020	1.971
4.108	7.604	2.020	1.971
4.158	7.605	2.020	1.972
4.207	7.494	2.020	1.971
4.258	7.621	2.020	1.973
4.307	7.329	2.020	1.973
4.357	7.419	2.020	1.970
4.408	7.918	2.020	1.972
4.458	7.469	2.020	1.971
4.507	7.629	2.020	1.970
4.558	7.841	2.020	1.971
4.608	7.592	2.020	1.972
4.657	7.451	2.020	1.970
4.708	7.865	2.020	1.971
4.758	7.597	2.020	1.968
4.807	8.130	2.020	1.971
4.857	7.568	2.020	1.973
4.907	7.346	2.020	1.972
4.957	7.493	2.020	1.970
5.008	7.929	2.020	1.974
5.057	7.149	2.020	1.973
5.107	7.349	2.020	1.971
5.158	7.673	2.020	1.970
5.208	7.917	2.020	1.972
5.258	7.437	2.020	1.971
5.308	7.771	2.020	1.969
5.358	8.020	2.020	1.973
5.408	7.260	2.020	1.973
5.458	7.458	2.020	1.971
5.508	7.671	2.020	1.973
5.558	7.422	2.020	1.973
5.608	7.449	2.020	1.973
5.658	7.451	2.020	1.969
5.709	8.012	2.020	1.970
5.759	7.837	2.020	1.972
5.809	7.459	2.020	1.973
5.859	7.338	2.020	1.973
5.908	7.471	2.020	1.973
5.959	7.404	2.020	1.973
6.009	7.355	2.020	1.973
6.059	7.475	2.020	1.971
6.109	7.688	2.020	1.972
6.159	7.608	2.020	1.971
6.209	7.672	2.020	1.972
6.259	7.554	2.020	1.971
6.309	7.681	2.020	1.972
6.359	7.557	2.020	1.973
6.409	7.291	2.020	1.972
6.459	7.662	2.020	1.972
6.509	7.568	2.020	1.972
6.559	7.576	2.020	1.972
6.609	7.577	2.020	1.971
6.659	7.747	2.020	1.972
6.709	7.505	2.020	1.973
6.759	7.476	2.020	1.973
6.809	7.428	2.020	1.972
6.859	7.604	2.020	1.971
6.909	7.698	2.020	1.972
6.960	7.518	2.020	1.971
7.010	7.708	2.020	1.973
7.060	7.465	2.020	1.971
7.110	7.773	2.020	1.973
7.159	7.461	2.020	1.972
7.209	7.664	2.020	1.973
7.260	7.478	2.020	1.973
7.310	7.386	2.020	1.973
7.359	7.457	2.020	1.972
7.410	7.564	2.020	1.973
7.459	7.384	2.020	1.971
7.509	7.742	2.020	1.972
7.559	7.592	2.020	1.973
7.609	7.382	2.020	1.973
7.659	7.522	2.020	1.970
7.710	8.014	2.020	1.973
7.760	7.453	2.020	1.973
7.809	7.513	2.020	1.972
7.860	7.682	2.020	1.971
7.910	7.721	2.020	1.971
7.960	7.715	2.020	1.972
8.011	7.605	2.020	1.970
8.061	7.956	2.020	1.973
8.111	7.413	2.020	1.972
8.161	7.586	2.020	1.971
8.212	7.798	2.020	1.973
8.262	7.493	2.020	1.974
8.311	7.302	2.020	1.978
8.361	6.657	2.020	1.974
8.411	7.354	2.020	1.965
8.461	8.798	2.020	1.972
8.511	7.558	2.020	1.973
8.561	7.515	2.020	1.973
8.610	7.536	2.020	1.974
8.661	7.257	2.020	1.973
8.711	7.571	2.020	1.973
8.761	10.000	2.020	1.959
8.823	10.000	2.020	1.973
8.873	10.000	2.020	1.971
8.923	10.000	2.020	1.971
8.973	10.000	2.020	1.970
9.023	10.000	2.020	1.973
9.073	10.000	2.020	1.971
9.123	10.000	2.020	1.971
9.173	10.000	2.020	1.973
9.223	10.000	2.020	1.974
9.272	10.000	2.020	1.971
9.323	10.000	2.020	1.970
9.373	10.000	2.020	1.976
9.423	10.000	2.020	1.976
9.474	10.000	2.020	1.978
9.524	10.000	2.020	1.979
9.574	10.000	2.020	1.983
9.624	10.000	2.020	1.982
9.675	10.000	2.020	1.987
9.725	10.000	2.020	1.988
9.775	10.000	2.020	1.990
9.825	10.000	2.020	1.993
9.876	10.000	2.020	1.994
9.926	10.000	2.020	1.996
9.976	10.000	2.020	1.997
10.027	10.000	2.020	1.997
10.077	10.000	2.020	1.997
10.127	10.000	2.020	1.998
10.177	10.000	2.020	1.996
10.228	10.000	2.020	1.998
10.277	10.000	2.020	1.999
10.327	10.000	2.020	1.999
10.378	10.000	2.020	2.001
10.427	10.000	2.020	2.001
10.477	10.000	2.020	1.998
10.528	10.000	2.020	2.001
10.578	10.000	2.020	2.002
10.627	10.000	2.020	2.001
10.678	10.000	2.020	2.002
10.728	10.000	2.020	2.003
10.778	10.000	2.020	2.001
10.827	10.000	2.020	2.003
10.878	10.000	2.020	2.002
10.928	10.000	2.020	2.003
10.978	10.000	2.020	2.005
11.029	10.000	2.020	2.000
11.079	10.000	2.020	2.004
11.129	10.000	2.020	2.005
11.179	10.000	2.020	2.004
11.230	10.000	2.020	2.005
11.280	10.000	2.020	2.006
11.330	10.000	2.020	2.005
11.380	10.000	2.020	2.006
11.431	10.000	2.020	2.005
11.481	10.000	2.020	2.008
11.531	9.764	2.020	2.005
11.582	10.000	2.020	2.007
11.632	9.863	2.020	2.007
11.682	9.971	2.020	2.007
11.732	10.000	2.020	2.007
11.783	9.958	2.020	2.009
11.832	9.684	2.020	2.006
11.881	10.000	2.020	2.009
11.931	9.665	2.020	2.009
11.981	9.605	2.020	2.007
12.031	9.954	2.020	2.010
12.081	9.523	2.020	2.010
12.131	9.512	2.020	2.008
12.182	9.798	2.020	2.010
12.232	9.542	2.020	2.009
12.282	9.624	2.020	2.009
12.331	9.674	2.020	2.010
12.382	9.499	2.020	2.009
12.432	9.631	2.020	2.011
12.482	9.281	2.020	2.011
12.532	9.433	2.020	2.011
12.582	9.363	2.020	2.012
12.632	9.202	2.020	2.007
12.682	10.000	2.020	2.012
12.732	9.173	2.020	2.012
12.782	9.215	2.020	2.011
12.832	9.446	2.020	1.993
12.882	10.000	2.020	2.013
12.932	8.668	2.020	2.010
12.982	9.520	2.020	2.015
13.033	8.628	2.020	2.014
13.083	8.950	2.020	2.014
13.132	8.868	2.020	2.009
13.183	9.772	2.020	2.016
13.232	8.487	2.020	2.012
13.283	9.298	2.020	2.016
13.333	8.548	2.020	2.014
13.383	8.963	2.020	2.016
13.432	8.643	2.020	2.015
13.483	8.844	2.020	2.015
13.533	8.825	2.020	2.018
13.583	8.264	2.020	2.017
13.633	8.497	2.020	2.019
13.683	8.085	2.020	2.017
13.733	8.467	2.020	2.018
13.783	8.260	2.020	2.018
13.834	8.335	2.020	2.018
13.883	8.329	2.020	2.017
13.933	8.553	2.020	2.017
13.984	8.471	2.020	2.019
14.033	8.028	2.020	2.018
14.083	8.418	2.020	2.018
14.134	8.379	2.020	2.017
14.184	8.435	2.020	2.017
14.233	8.541	2.020	2.017
14.284	8.415	2.020	2.017
14.334	8.428	2.020	2.017
14.384	8.484	2.020	2.017
14.435	8.478	2.020	2.016
14.486	8.702	2.020	2.018
14.536	8.227	2.020	2.018
14.585	8.336	2.020	2.018
14.636	8.329	2.020	2.017
14.686	8.441	2.020	2.018
14.736	8.204	2.020	2.019
14.786	8.174	2.020	2.018
14.836	8.293	2.020	2.018
14.885	8.336	2.020	2.014
14.935	9.058	2.020	2.017
14.985	8.469	2.020	2.015
15.035	8.752	2.020	2.016
15.085	8.558	2.020	2.017
15.136	8.409	2.020	2.018
15.186	8.316	2.020	2.018
15.236	8.385	2.020	2.017
15.287	8.491	2.020	2.018
15.337	8.253	2.020	2.018
15.387	8.392	2.020	2.017
15.438	8.491	2.020	2.016
15.488	8.646	2.020	2.018
15.537	8.345	2.020	2.017
15.588	8.547	2.020	2.016
15.638	8.640	2.020	2.019
15.688	8.122	2.020	2.014
15.738	8.966	2.020	2.006
15.788	10.000	2.020	2.013
15.838	8.870	2.020	2.013
15.888	9.079	2.020	2.010
15.939	9.632	2.020	2.005
15.989	10.000	2.020	2.005
16.039	10.000	2.020	2.014
16.089	8.741	2.020	2.010
16.140	9.651	2.020	2.018
16.190	8.054	2.020	2.019
16.240	8.118	2.020	2.020
16.290	7.962	2.020	2.019
16.340	8.150	2.020	2.020
16.390	8.019	2.020	2.021
16.440	7.806	2.020	2.018
16.491	8.281	2.020	2.018
16.540	8.342	2.020	2.020
16.590	7.936	2.020	2.018
16.641	8.262	2.020	2.020
16.690	7.892	2.020	2.016
16.740	8.718	2.020	2.003
16.790	10.000	2.020	2.015
16.839	8.466	2.020	2.009
16.889	9.789	2.020	2.004
16.940	10.000	2.020	2.014
16.990	8.722	2.020	2.011
17.039	9.429	2.020	2.015
17.090	8.753	2.020	2.003
17.140	10.000	2.020	2.015
17.190	8.583	2.020	2.014
17.240	8.881	2.020	2.013
17.290	9.043	2.020	2.005
17.340	10.000	2.020	2.005
17.390	10.000	2.020	2.014
17.440	8.807	2.020	2.007
17.490	10.000	2.020	2.005
17.540	10.000	2.020	2.006
17.591	10.000	2.020	1.979
17.641	10.000	2.020	1.964
17.691	10.000	2.020	1.968
17.742	10.000	2.020	1.974
17.792	10.000	2.020	1.984
17.842	10.000	2.020	1.995
17.892	10.000	2.020	2.013
17.943	8.707	2.020	2.041
17.993	4.285	2.020	2.079
18.043	0.000	2.020	2.138
18.093	0.000	2.020	2.199
18.143	0.000	2.020	2.255
18.193	0.000	2.020	2.278
18.243	0.000	2.020	2.249
18.294	0.000	2.020	2.189
18.344	0.000	2.020	2.120
18.394	0.000	2.020	2.061
18.445	1.587	2.020	2.023
18.495	6.820	2.020	1.996
18.545	10.000	2.020	1.979
18.595	10.000	2.020	1.967
18.646	10.000	2.020	1.965
18.696	10.000	2.020	1.966
18.746	10.000	2.020	1.964
18.796	10.000	2.020	1.966
18.846	10.000	2.020	1.966
18.896	10.000	2.020	1.964
18.946	10.000	2.020	1.965
18.997	10.000	2.020	1.967
19.046	10.000	2.020	1.964
19.096	10.000	2.020	1.968
19.147	10.000	2.020	1.970
19.197	10.000	2.020	1.971
19.247	10.000	2.020	1.972
19.298	10.000	2.020	1.975
19.348	10.000	2.020	1.980
19.397	10.000	2.020	1.984
19.447	10.000	2.020	1.989
19.497	10.000	2.020	1.999
19.547	10.000	2.020	2.008
19.597	9.285	2.020	2.021
19.647	7.089	2.020	2.036
19.697	4.884	2.020	2.050
19.748	2.735	2.020	2.068
19.798	0.000	2.020	2.084
19.848	0.000	2.020	2.086
19.898	0.000	2.020	2.082
19.948	0.000	2.020	2.067
19.998	0.391	2.020	2.047
20.048	3.491	2.020	2.025
20.099	6.837	2.020	2.004
20.149	10.000	2.020	1.990
20.199	10.000	2.020	1.975
20.249	10.000	2.020	1.968
20.300	10.000	2.020	1.965
20.350	10.000	2.020	1.966
20.400	10.000	2.020	1.965
20.450	10.000	2.020	1.961
20.501	10.000	2.020	1.966
20.551	10.000	2.020	1.966
20.601	10.000	2.020	1.969
20.651	10.000	2.020	1.971
20.701	10.000	2.020	1.973
20.751	10.000	2.020	1.975
20.801	10.000	2.020	1.977
20.851	10.000	2.020	1.982
20.901	10.000	2.020	1.986
20.952	10.000	2.020	1.993
21.002	10.000	2.020	2.002
21.052	10.000	2.020	2.010
21.102	9.405	2.020	2.019
21.153	8.001	2.020	2.015
21.203	8.853	2.020	2.042
21.253	4.042	2.020	2.051
21.304	2.991	2.020	2.062
21.354	1.390	2.020	2.068
21.404	0.479	2.020	2.069
21.454	0.329	2.020	2.065
21.505	1.038	2.020	2.050
21.555	3.392	2.020	2.033
21.605	6.121	2.020	2.014
21.655	9.028	2.020	1.998
21.706	10.000	2.020	1.983
21.756	10.000	2.020	1.972
21.806	10.000	2.020	1.966
21.857	10.000	2.020	1.966
21.907	10.000	2.020	1.965
21.957	10.000	2.020	1.967
22.007	10.000	2.020	1.964
22.058	10.000	2.020	1.968
22.108	10.000	2.020	1.968
22.158	10.000	2.020	1.970
22.208	10.000	2.020	1.971
22.259	10.000	2.020	1.972
22.308	10.000	2.020	1.975
22.358	10.000	2.020	1.978
22.409	10.000	2.020	1.983
22.458	10.000	2.020	1.987
22.508	10.000	2.020	1.989
22.559	10.000	2.020	1.999
22.609	10.000	2.020	2.007
22.659	9.739	2.020	2.014
22.709	8.793	2.020	2.022
22.759	7.463	2.020	2.038
22.809	4.979	2.020	2.049
22.859	3.350	2.020	2.052
22.909	2.979	2.020	2.063
22.959	1.037	2.020	2.064
23.009	1.166	2.020	2.057
23.059	2.313	2.020	2.045
23.109	4.226	2.020	2.026
23.159	7.281	2.020	2.007
23.210	10.000	2.020	1.993
23.259	10.000	2.020	1.977
23.309	10.000	2.020	1.971
23.360	10.000	2.020	1.967
23.409	10.000	2.020	1.965
23.459	10.000	2.020	1.966
23.510	10.000	2.020	1.967
23.560	10.000	2.020	1.968
23.609	10.000	2.020	1.968
23.660	10.000	2.020	1.970
23.710	10.000	2.020	1.972
23.760	10.000	2.020	1.973
23.810	10.000	2.020	1.977
23.860	10.000	2.020	1.981
23.910	10.000	2.020	1.985
23.960	10.000	2.020	1.991
24.011	10.000	2.020	1.996
24.061	10.000	2.020	2.004
24.111	10.000	2.020	2.009
24.162	9.571	2.020	2.019
24.212	7.873	2.020	2.029
24.262	6.446	2.020	2.039
24.312	4.877	2.020	2.048
24.362	3.481	2.020	2.055
24.412	2.451	2.020	2.061
24.462	1.481	2.020	2.058
24.512	2.184	2.020	2.050
24.561	3.375	2.020	2.037
24.610	5.449	2.020	2.018
24.660	8.394	2.020	2.003
24.710	10.000	2.020	1.985
24.760	10.000	2.020	1.975
24.811	10.000	2.020	1.968
24.861	10.000	2.020	1.964
24.911	10.000	2.020	1.964
24.961	10.000	2.020	1.964
25.011	10.000	2.020	1.965
25.061	10.000	2.020	1.962
25.111	10.000	2.020	1.967
25.161	10.000	2.020	1.969
25.211	10.000	2.020	1.967
25.262	10.000	2.020	1.971
25.311	10.000	2.020	1.973
25.361	10.000	2.020	1.974
25.412	10.000	2.020	1.979
25.462	10.000	2.020	1.984
25.512	10.000	2.020	1.989
25.562	10.000	2.020	1.996
25.613	10.000	2.020	1.998
25.663	10.000	2.020	2.010
25.712	9.223	2.020	2.015
25.762	8.628	2.020	2.024
25.812	7.151	2.020	2.034
25.862	5.637	2.020	2.040
25.912	4.746	2.020	2.047
25.962	3.665	2.020	2.053
26.012	2.703	2.020	2.051
26.063	3.132	2.020	2.051
26.113	3.062	2.020	2.040
26.162	4.953	2.020	2.026
26.213	7.126	2.020	2.006
26.263	10.000	2.020	1.994
26.313	10.000	2.020	1.979
26.363	10.000	2.020	1.971
26.413	10.000	2.020	1.966
26.462	10.000	2.020	1.962
26.512	10.000	2.020	1.963
26.563	10.000	2.020	1.967
26.613	10.000	2.020	1.954
26.663	10.000	2.020	1.967
26.714	10.000	2.020	1.969
26.764	10.000	2.020	1.971
26.814	10.000	2.020	1.972
26.864	10.000	2.020	1.975
26.914	10.000	2.020	1.978
26.964	10.000	2.020	1.983
27.014	10.000	2.020	1.989
27.065	10.000	2.020	1.996
27.115	10.000	2.020	2.002
27.164	10.000	2.020	2.010
27.215	9.421	2.020	2.019
27.265	7.886	2.020	2.027
27.315	6.728	2.020	2.036
27.365	5.414	2.020	2.043
27.416	4.267	2.020	2.050
27.466	3.209	2.020	2.052
27.515	3.034	2.020	2.053
27.566	2.809	2.020	2.049
27.616	3.535	2.020	2.036
27.666	5.678	2.020	2.022
27.716	7.771	2.020	2.005
27.766	10.000	2.020	1.990
27.816	10.000	2.020	1.956
27.866	10.000	2.020	1.972
27.917	10.000	2.020	1.966
27.967	10.000	2.020	1.958
28.017	10.000	2.020	1.964
28.067	10.000	2.020	1.963
28.117	10.000	2.020	1.965
28.167	10.000	2.020	1.964
28.218	10.000	2.020	1.961
28.268	10.000	2.020	1.958
28.318	10.000	2.020	1.961
28.368	10.000	2.020	1.970
28.418	10.000	2.020	1.968
28.468	10.000	2.020	1.981
28.518	10.000	2.020	1.983
28.568	10.000	2.020	1.984
28.618	10.000	2.020	1.986
28.668	10.000	2.020	2.001
28.718	10.000	2.020	2.006
28.768	9.946	2.020	2.006
28.818	10.000	2.020	1.994
28.870	10.000	2.020	2.023
28.920	6.953	2.020	2.027
28.970	6.909	2.020	2.033
29.020	5.790	2.020	2.033
29.071	5.913	2.020	2.028
29.121	6.859	2.020	2.034
29.171	5.725	2.020	2.030
29.221	6.384	2.020	2.026
29.290	7.021	2.020	2.021
29.340	7.818	2.020	2.019
29.389	8.060	2.020	2.015
29.438	8.664	2.020	2.012
29.488	9.166	2.020	2.010
29.538	9.420	2.020	2.003
29.588	10.000	2.020	2.006
29.637	10.000	2.020	2.005
29.687	10.000	2.020	2.006
29.738	10.000	2.020	2.006
29.787	10.000	2.020	2.009
29.837	9.612	2.020	2.011
29.888	9.367	2.020	2.015
29.938	8.818	2.020	2.012
29.987	9.176	2.020	2.008
30.037	9.824	2.020	2.014
30.087	8.962	2.020	2.019
30.137	8.120	2.020	2.021
30.188	7.829	2.020	2.029
30.238	6.618	2.020	2.023
30.287	7.484	2.020	2.027
30.337	6.863	2.020	2.022
30.387	7.723	2.020	2.018
30.437	8.367	2.020	2.022
30.487	7.654	2.020	2.015
30.537	8.773	2.020	2.014
30.587	8.915	2.020	2.013
30.637	9.020	2.020	2.024
30.688	7.408	2.020	2.012
30.737	9.295	2.020	2.011
30.787	9.371	2.020	2.023
30.837	7.509	2.020	2.024
30.886	7.328	2.020	2.030
30.937	6.518	2.020	2.026
30.987	7.074	2.020	2.023
31.037	7.465	2.020	2.012
31.087	9.276	2.020	2.009
31.138	9.615	2.020	2.020
31.187	7.902	2.020	2.017
31.237	8.531	2.020	2.025
31.287	7.162	2.020	2.025
31.337	7.174	2.020	2.023
31.387	7.573	2.020	2.021
31.438	7.868	2.020	2.024
31.487	7.358	2.020	2.024
31.537	7.361	2.020	2.022
31.588	7.609	2.020	2.015
31.638	8.766	2.020	2.023
31.687	7.493	2.020	2.020
31.738	7.961	2.020	2.016
31.788	8.663	2.020	2.025
31.837	7.242	2.020	2.020
31.888	7.964	2.020	2.022
31.938	7.601	2.020	2.018
31.988	8.361	2.020	2.014
32.038	8.859	2.020	2.010
32.089	9.515	2.020	2.012
32.139	9.163	2.020	2.014
32.189	8.921	2.020	2.012
32.239	9.275	2.020	2.023
32.288	7.560	2.020	2.021
32.338	7.782	2.020	2.018
32.389	8.334	2.020	2.013
32.439	9.133	2.020	2.029
32.488	6.602	2.020	2.023
32.539	7.485	2.020	2.020
32.589	7.926	2.020	2.016
32.639	8.576	2.020	2.028
32.689	6.803	2.020	2.025
32.739	7.172	2.020	2.023
32.789	7.566	2.020	2.025
32.839	7.255	2.020	2.025
32.889	7.153	2.020	2.021
32.939	7.806	2.020	2.014
32.989	8.959	2.020	2.012
33.040	9.203	2.020	2.017
33.089	8.500	2.020	2.018
33.139	8.361	2.020	2.015
33.190	8.821	2.020	2.010
33.240	9.528	2.020	2.014
33.290	8.966	2.020	2.020
33.340	8.020	2.020	2.022
33.391	7.678	2.020	2.016
33.440	8.639	2.020	2.025
33.490	7.215	2.020	2.019
33.540	8.189	2.020	2.017
33.590	8.532	2.020	2.031
33.640	6.357	2.020	2.026
33.690	7.032	2.020	2.032
33.739	6.107	2.020	2.030
33.789	6.460	2.020	2.028
33.839	6.800	2.020	2.027
33.888	6.838	2.020	2.027
33.939	6.830	2.020	2.023
33.989	7.429	2.020	2.021
34.039	7.823	2.020	2.019
34.089	8.069	2.020	2.013
34.138	9.078	2.020	2.012
34.188	9.224	2.020	2.006
34.239	10.000	2.020	2.005
34.288	10.000	2.020	2.005
34.338	10.000	2.020	2.005
34.389	10.000	2.020	2.006
34.439	10.000	2.020	2.010
34.488	9.461	2.020	2.011
34.539	9.369	2.020	2.017
34.589	8.516	2.020	2.019
34.638	8.126	2.020	2.024
34.688	7.424	2.020	2.026
34.738	7.025	2.020	2.033
34.787	5.912	2.020	2.038
34.838	5.155	2.020	2.038
34.888	5.247	2.020	2.042
34.938	4.622	2.020	2.034
34.988	5.770	2.020	2.033
35.038	5.994	2.020	2.028
35.088	6.736	2.020	2.016
35.138	8.539	2.020	2.010
35.188	9.429	2.020	2.001
35.238	10.000	2.020	1.992
35.288	10.000	2.020	1.989
35.339	10.000	2.020	1.986
35.389	10.000	2.020	1.983
35.439	10.000	2.020	1.983
35.490	10.000	2.020	1.984
35.540	10.000	2.020	1.985
35.590	10.000	2.020	1.988
35.640	10.000	2.020	1.992
35.690	10.000	2.020	1.998
35.740	10.000	2.020	2.003
35.790	10.000	2.020	2.010
35.841	9.506	2.020	2.021
35.890	7.860	2.020	2.027
35.939	6.870	2.020	2.043
35.989	4.501	2.020	2.053
36.039	2.942	2.020	2.062
36.089	1.464	2.020	2.068
36.140	0.481	2.020	2.067
36.189	0.647	2.020	2.054
36.239	2.568	2.020	2.042
36.290	4.378	2.020	2.024
36.340	7.213	2.020	2.007
36.390	9.800	2.020	1.993
36.441	10.000	2.020	1.973
36.491	10.000	2.020	1.971
36.541	10.000	2.020	1.964
36.591	10.000	2.020	1.964
36.642	10.000	2.020	1.963
36.691	10.000	2.020	1.966
36.740	10.000	2.020	1.968
36.790	10.000	2.020	1.968
36.840	10.000	2.020	1.970
36.890	10.000	2.020	1.971
36.940	10.000	2.020	1.975
36.989	10.000	2.020	1.973
37.040	10.000	2.020	1.981
37.090	10.000	2.020	1.985
37.139	10.000	2.020	1.989
37.190	10.000	2.020	1.997
37.240	10.000	2.020	2.004
37.290	10.000	2.020	2.013
37.340	9.056	2.020	2.024
37.390	7.412	2.020	2.035
37.440	5.711	2.020	2.047
37.490	3.798	2.020	2.057
37.541	2.280	2.020	2.068
37.591	0.543	2.020	2.073
37.641	0.000	2.020	2.069
37.691	0.272	2.020	2.059
37.742	1.883	2.020	2.041
37.792	4.552	2.020	2.023
37.842	7.276	2.020	2.001
37.893	10.000	2.020	1.988
37.943	10.000	2.020	1.977
37.993	10.000	2.020	1.967
38.043	10.000	2.020	1.963
38.093	10.000	2.020	1.959
38.143	10.000	2.020	1.966
38.193	10.000	2.020	1.966
38.244	10.000	2.020	1.967
38.293	10.000	2.020	1.968
38.343	10.000	2.020	1.969
38.394	10.000	2.020	1.971
38.444	10.000	2.020	1.974
38.493	10.000	2.020	1.974
38.544	10.000	2.020	1.979
38.594	10.000	2.020	1.984
38.643	10.000	2.020	1.987
38.693	10.000	2.020	1.995
38.743	10.000	2.020	2.002
38.793	10.000	2.020	2.006
38.843	10.000	2.020	2.011
38.893	9.310	2.020	2.024
38.943	7.408	2.020	2.034
38.993	5.812	2.020	2.042
39.043	4.555	2.020	2.050
39.093	3.336	2.020	2.055
39.143	2.564	2.020	2.060
39.193	1.730	2.020	2.058
39.243	2.104	2.020	2.047
39.293	3.780	2.020	2.032
39.342	6.006	2.020	2.015
39.392	8.643	2.020	1.999
39.443	10.000	2.020	1.986
39.493	10.000	2.020	1.974
39.542	10.000	2.020	1.966
39.593	10.000	2.020	1.964
39.643	10.000	2.020	1.964
39.693	10.000	2.020	1.964
39.743	10.000	2.020	1.964
39.793	10.000	2.020	1.967
39.843	10.000	2.020	1.965
39.893	10.000	2.020	1.964
39.943	10.000	2.020	1.971
39.992	10.000	2.020	1.974
40.042	10.000	2.020	1.976
40.092	10.000	2.020	1.980
40.142	10.000	2.020	1.986
40.192	10.000	2.020	1.990
40.242	10.000	2.020	1.998
40.292	10.000	2.020	2.003
40.342	10.000	2.020	2.015
40.393	8.750	2.020	2.026
40.442	7.112	2.020	2.031
40.492	6.370	2.020	2.036
40.543	5.460	2.020	2.048
40.593	3.736	2.020	2.052
40.643	3.074	2.020	2.054
40.694	2.647	2.020	2.050
40.744	3.274	2.020	2.043
40.794	4.297	2.020	2.031
40.843	6.231	2.020	2.014
40.894	8.722	2.020	1.999
40.944	10.000	2.020	1.985
40.994	10.000	2.020	1.972
41.044	10.000	2.020	1.969
41.094	10.000	2.020	1.964
41.144	10.000	2.020	1.962
41.195	10.000	2.020	1.964
41.245	10.000	2.020	1.966
41.295	10.000	2.020	1.965
41.345	10.000	2.020	1.967
41.395	10.000	2.020	1.969
41.444	10.000	2.020	1.971
41.495	10.000	2.020	1.972
41.545	10.000	2.020	1.974
41.595	10.000	2.020	1.979
41.645	10.000	2.020	1.981
41.695	10.000	2.020	1.986
41.745	10.000	2.020	1.990
41.795	10.000	2.020	1.997
41.846	10.000	2.020	2.003
41.895	10.000	2.020	2.012
41.945	9.153	2.020	2.019
41.996	8.168	2.020	2.027
42.045	6.968	2.020	2.035
42.095	5.613	2.020	2.039
42.146	5.009	2.020	2.048
42.195	3.581	2.020	2.050
42.245	3.369	2.020	2.050
42.296	3.342	2.020	2.045
42.346	4.020	2.020	2.035
42.395	5.604	2.020	2.022
42.445	7.539	2.020	2.001
42.495	10.000	2.020	1.990
42.545	10.000	2.020	1.977
42.595	10.000	2.020	1.972
42.645	10.000	2.020	1.965
42.695	10.000	2.020	1.962
42.745	10.000	2.020	1.964
42.796	10.000	2.020	1.965
42.845	10.000	2.020	1.963
42.895	10.000	2.020	1.968
42.946	10.000	2.020	1.969
42.996	10.000	2.020	1.969
43.045	10.000	2.020	1.971
43.096	10.000	2.020	1.976
43.146	10.000	2.020	1.982
43.196	10.000	2.020	1.986
43.247	10.000	2.020	1.993
43.297	10.000	2.020	2.000
43.347	10.000	2.020	2.008
43.396	9.748	2.020	2.018
43.446	8.360	2.020	2.029
43.496	6.612	2.020	2.040
43.546	4.908	2.020	2.046
43.597	4.051	2.020	2.063
43.647	1.357	2.020	2.067
43.697	0.743	2.020	2.067
43.748	0.704	2.020	2.062
43.798	1.415	2.020	2.049
43.848	3.385	2.020	2.032
43.897	5.959	2.020	2.016
43.947	8.339	2.020	1.999
43.997	10.000	2.020	1.984
44.048	10.000	2.020	1.972
44.098	10.000	2.020	1.967
44.148	10.000	2.020	1.964
44.198	10.000	2.020	1.964
44.249	10.000	2.020	1.964
44.298	10.000	2.020	1.965
44.348	10.000	2.020	1.967
44.399	10.000	2.020	1.968
44.449	10.000	2.020	1.968
44.499	10.000	2.020	1.969
44.549	10.000	2.020	1.973
44.600	10.000	2.020	1.975
44.650	10.000	2.020	1.978
44.700	10.000	2.020	1.983
44.750	10.000	2.020	1.987
44.800	10.000	2.020	1.991
44.849	10.000	2.020	1.999
44.899	10.000	2.020	2.006
44.949	10.000	2.020	2.013
44.999	9.060	2.020	2.022
45.050	7.614	2.020	2.031
45.099	6.366	2.020	2.035
45.148	5.614	2.020	2.044
45.199	4.295	2.020	2.051
45.248	3.175	2.020	2.050
45.299	3.311	2.020	2.048
45.349	3.531	2.020	2.044
45.399	4.207	2.020	2.032
45.448	5.994	2.020	2.016
45.499	8.485	2.020	2.004
45.549	10.000	2.020	1.988
45.598	10.000	2.020	1.976
45.649	10.000	2.020	1.973
45.699	10.000	2.020	1.969
45.749	10.000	2.020	1.965
45.799	10.000	2.020	1.964
45.849	10.000	2.020	1.966
45.899	10.000	2.020	1.967
45.949	10.000	2.020	1.968
45.999	10.000	2.020	1.971
46.049	10.000	2.020	1.973
46.099	10.000	2.020	1.977
46.149	10.000	2.020	1.981
46.199	10.000	2.020	1.984
46.250	10.000	2.020	1.991
46.300	10.000	2.020	1.998
46.349	10.000	2.020	2.005
46.399	10.000	2.020	2.017
46.450	8.504	2.020	2.025
46.500	7.267	2.020	2.040
46.549	4.953	2.020	2.053
46.600	2.943	2.020	2.062
46.650	1.521	2.020	2.072
46.700	0.000	2.020	2.072
46.750	0.000	2.020	2.068
46.800	0.504	2.020	2.056
46.850	2.318	2.020	2.036
46.900	5.341	2.020	2.018
46.950	8.065	2.020	1.999
47.000	10.000	2.020	1.983
47.050	10.000	2.020	1.973
47.101	10.000	2.020	1.967
47.151	10.000	2.020	1.965
47.201	10.000	2.020	1.963
47.252	10.000	2.020	1.965
47.302	10.000	2.020	1.967
47.352	10.000	2.020	1.966
47.402	10.000	2.020	1.967
47.453	10.000	2.020	1.968
47.502	10.000	2.020	1.970
47.552	10.000	2.020	1.967
47.603	10.000	2.020	1.969
47.653	10.000	2.020	1.972
47.703	10.000	2.020	1.980
47.753	10.000	2.020	1.984
47.804	10.000	2.020	1.992
47.854	10.000	2.020	1.998
47.904	10.000	2.020	2.006
47.954	10.000	2.020	2.015
48.004	8.758	2.020	2.024
48.053	7.415	2.020	2.038
48.104	5.257	2.020	2.047
48.154	3.801	2.020	2.056
48.204	2.377	2.020	2.063
48.254	1.349	2.020	2.060
48.305	1.723	2.020	2.055
48.355	2.537	2.020	2.045
48.405	3.957	2.020	2.024
48.456	7.197	2.020	2.014
48.506	8.668	2.020	1.991
48.555	10.000	2.020	1.973
48.606	10.000	2.020	1.961
48.656	10.000	2.020	1.963
48.705	10.000	2.020	1.952
48.756	10.000	2.020	1.953
48.806	10.000	2.020	1.955
48.856	10.000	2.020	1.963
48.906	10.000	2.020	1.965
48.957	10.000	2.020	1.968
49.007	10.000	2.020	1.967
49.057	10.000	2.020	1.971
49.107	10.000	2.020	1.974
49.158	10.000	2.020	1.975
49.207	10.000	2.020	1.981
49.257	10.000	2.020	1.985
49.308	10.000	2.020	1.991
49.358	10.000	2.020	1.999
49.408	10.000	2.020	2.005
49.458	10.000	2.020	2.010
49.508	9.559	2.020	2.018
49.563	8.364	2.020	2.027
49.628	6.920	2.020	2.039
49.678	5.057	2.020	2.045
49.728	4.203	2.020	2.052
49.777	3.027	2.020	2.056
49.827	2.404	2.020	2.056
49.884	2.325	2.020	2.049
49.934	3.351	2.020	2.038
49.983	5.026	2.020	2.021
50.033	7.614	2.020	2.005
50.083	10.000	2.020	1.990
50.133	10.000	2.020	1.975
50.183	10.000	2.020	1.969
50.233	10.000	2.020	1.964
50.283	10.000	2.020	1.964
50.333	10.000	2.020	1.965
50.382	10.000	2.020	1.967
50.432	10.000	2.020	1.965
50.483	10.000	2.020	1.968
50.533	10.000	2.020	1.971
50.583	10.000	2.020	1.971
50.633	10.000	2.020	1.973
50.684	10.000	2.020	1.977
50.734	10.000	2.020	1.979
50.784	10.000	2.020	1.984
50.834	10.000	2.020	1.990
50.884	10.000	2.020	1.996
50.934	10.000	2.020	2.003
50.984	10.000	2.020	2.012
51.034	9.254	2.020	2.022
51.084	7.611	2.020	2.034
51.134	5.811	2.020	2.047
51.184	3.900	2.020	2.063
51.233	1.269	2.020	2.072
51.284	0.000	2.020	2.080
51.334	0.000	2.020	2.079
51.383	1.830	2.020	2.069
51.449	2.839	2.020	2.046
51.499	5.125	2.020	2.023
51.549	7.438	2.020	2.006
51.599	9.102	2.020	1.992
51.648	10.000	2.020	1.977
51.698	10.000	2.020	1.971
51.749	10.000	2.020	1.966
51.798	10.000	2.020	1.965
51.848	10.000	2.020	1.966
51.899	10.000	2.020	1.965
51.949	10.000	2.020	1.966
51.998	10.000	2.020	1.969
52.049	10.000	2.020	1.971
52.099	10.000	2.020	1.970
52.149	10.000	2.020	1.973
52.199	10.000	2.020	1.976
52.249	10.000	2.020	1.979
52.298	10.000	2.020	1.981
52.349	10.000	2.020	1.987
52.398	10.000	2.020	1.994
52.448	10.000	2.020	1.997
52.498	10.000	2.020	2.006
52.548	9.373	2.020	2.013
52.598	8.692	2.020	2.022
52.649	7.739	2.020	2.031
52.698	6.882	2.020	2.036
52.748	6.384	2.020	2.039
52.799	6.076	2.020	2.048
52.849	5.089	2.020	2.048
52.899	5.046	2.020	2.049
52.949	4.918	2.020	2.041
52.999	5.797	2.020	2.039
53.049	5.893	2.020	2.031
53.099	6.744	2.020	2.023
53.149	7.523	2.020	2.016
53.199	8.276	2.020	2.006
53.249	9.240	2.020	2.000
53.300	9.839	2.020	1.994
53.349	10.000	2.020	1.983
53.399	10.000	2.020	1.985
53.450	10.000	2.020	1.986
53.499	10.000	2.020	1.985
53.549	10.000	2.020	1.986
53.600	10.000	2.020	1.988
53.650	10.000	2.020	1.991
53.700	10.000	2.020	1.995
53.750	10.000	2.020	2.001
53.800	9.934	2.020	2.008
53.849	9.213	2.020	2.011
53.899	8.895	2.020	2.022
53.949	7.802	2.020	2.033
53.998	6.612	2.020	2.045
54.048	5.413	2.020	2.055
54.098	4.371	2.020	2.063
54.148	3.549	2.020	2.062
54.198	3.656	2.020	2.072
54.248	2.604	2.020	2.066
54.298	3.177	2.020	2.048
54.349	4.932	2.020	2.035
54.398	6.247	2.020	2.015
54.448	8.287	2.020	1.997
54.499	10.000	2.020	1.983
54.548	10.000	2.020	1.973
54.598	10.000	2.020	1.966
54.649	10.000	2.020	1.963
54.699	10.000	2.020	1.966
54.749	10.000	2.020	1.964
54.799	10.000	2.020	1.965
54.849	10.000	2.020	1.970
54.898	10.000	2.020	1.968
54.949	10.000	2.020	1.966
54.999	10.000	2.020	1.969
55.049	10.000	2.020	1.973
55.099	10.000	2.020	1.973
55.150	10.000	2.020	1.978
55.200	10.000	2.020	1.982
55.250	10.000	2.020	1.985
55.300	10.000	2.020	1.991
55.350	10.000	2.020	1.993
55.399	10.000	2.020	2.003
55.450	9.698	2.020	2.009
55.500	9.085	2.020	2.018
55.550	8.232	2.020	2.024
55.600	7.613	2.020	2.033
55.649	6.715	2.020	2.044
55.699	5.545	2.020	2.047
55.749	5.275	2.020	2.054
55.799	4.481	2.020	2.054
55.848	4.429	2.020	2.055
55.898	4.328	2.020	2.053
55.948	4.529	2.020	2.045
55.998	5.332	2.020	2.035
56.049	6.298	2.020	2.021
56.099	7.675	2.020	2.005
56.149	9.258	2.020	1.993
56.199	10.000	2.020	1.983
56.250	10.000	2.020	1.977
56.300	10.000	2.020	1.972
56.349	10.000	2.020	1.970
56.400	10.000	2.020	1.967
56.450	10.000	2.020	1.968
56.500	10.000	2.020	1.967
56.550	10.000	2.020	1.968
56.600	10.000	2.020	1.968
56.649	10.000	2.020	1.966
56.699	10.000	2.020	1.974
56.749	10.000	2.020	1.974
56.799	10.000	2.020	1.979
56.849	10.000	2.020	1.986
56.898	10.000	2.020	1.987
56.948	10.000	2.020	1.999
56.998	10.000	2.020	2.011
57.048	8.845	2.020	2.020
57.099	7.937	2.020	2.039
57.149	6.007	2.020	2.056
57.199	4.279	2.020	2.070
57.249	2.866	2.020	2.083
57.300	1.500	2.020	2.092
57.350	0.522	2.020	2.095
57.399	0.166	2.020	2.083
57.450	1.305	2.020	2.064
57.500	3.234	2.020	2.042
57.549	5.436	2.020	2.019
57.600	7.652	2.020	1.995
57.650	7.875	2.020	1.984
57.701	8.003	2.020	1.972
57.751	8.169	2.020	1.966
57.801	8.274	2.020	1.966
57.852	8.308	2.020	1.967
57.902	8.350	2.020	1.967
57.951	8.409	2.020	1.967
58.002	8.466	2.020	1.970
58.052	8.480	2.020	1.966
58.101	8.543	2.020	1.968
58.152	8.521	2.020	1.967
58.202	8.532	2.020	1.969
58.252	8.507	2.020	1.968
58.302	8.526	2.020	1.973
58.353	8.461	2.020	1.973
58.403	8.464	2.020	1.975
58.452	8.449	2.020	1.974
58.503	8.460	2.020	1.981
58.553	8.376	2.020	1.983
58.603	8.367	2.020	1.985
58.654	8.343	2.020	1.988
58.704	8.309	2.020	1.995
58.754	8.233	2.020	1.997
58.804	8.223	2.020	1.999
58.855	8.204	2.020	2.006
58.905	8.121	2.020	2.013
58.955	8.061	2.020	2.014
59.005	8.062	2.020	2.018
59.056	8.017	2.020	2.018
59.106	8.021	2.020	2.016
59.156	8.049	2.020	2.018
59.207	8.021	2.020	2.018
59.257	8.025	2.020	2.017
59.306	8.029	2.020	2.015
59.357	8.052	2.020	2.012
59.407	8.091	2.020	2.016
59.457	8.029	2.020	2.017
59.507	8.034	2.020	2.013
59.557	8.078	2.020	2.018
59.606	8.012	2.020	2.018
59.657	8.026	2.020	2.017
59.707	8.033	2.020	2.016
59.757	8.039	2.020	2.015
59.807	8.058	2.020	2.013
59.858	8.074	2.020	2.016
59.907	8.031	2.020	2.013
59.956	8.073	2.020	2.009
60.007	8.122	2.020	2.017
60.057	8.019	2.020	2.016
60.107	8.046	2.020	2.015
60.157	8.048	2.020	2.015
60.207	8.048	2.020	2.016
60.257	8.036	2.020	2.013
60.307	8.077	2.020	2.014
60.358	8.055	2.020	2.015
60.408	8.050	2.020	2.016
60.458	8.043	2.020	2.016
60.509	8.044	2.020	2.006
60.559	8.154	2.020	2.017
60.609	8.014	2.020	2.015
60.659	8.054	2.020	2.009
60.710	8.121	2.020	2.017
60.759	8.019	2.020	2.013
60.809	8.074	2.020	2.017
60.859	8.024	2.020	2.015
60.909	8.055	2.020	2.012
60.960	8.086	2.020	2.016
61.010	8.037	2.020	2.016
61.060	8.041	2.020	2.015
61.109	8.053	2.020	2.011
61.160	8.102	2.020	2.013
61.210	8.070	2.020	2.014
61.260	8.054	2.020	2.014
61.310	8.058	2.020	2.017
61.360	8.026	2.020	2.014
61.409	8.071	2.020	2.008
61.459	8.134	2.020	2.014
61.509	8.044	2.020	2.016
61.559	8.042	2.020	2.012
61.609	8.088	2.020	2.016
61.658	8.037	2.020	2.015
61.708	8.048	2.020	2.014
61.759	8.067	2.020	2.017
61.808	8.029	2.020	2.014
61.858	8.070	2.020	2.013
61.909	8.072	2.020	2.014
61.958	8.055	2.020	2.013
62.008	8.069	2.020	2.014
62.059	8.059	2.020	2.016
62.109	8.041	2.020	2.015
62.158	8.056	2.020	2.015
62.209	8.050	2.020	2.015
62.259	8.051	2.020	2.015
62.309	8.047	2.020	2.016
62.359	8.040	2.020	2.015
62.409	8.057	2.020	2.017
62.459	8.031	2.020	2.013
62.509	8.078	2.020	2.013
62.559	8.067	2.020	2.017
62.609	8.020	2.020	2.014
62.659	8.063	2.020	2.016
62.709	8.034	2.020	2.016
62.758	8.046	2.020	2.013
62.809	8.072	2.020	2.015
62.859	8.048	2.020	2.017
62.908	8.027	2.020	2.015
62.959	8.051	2.020	2.015
63.009	8.052	2.020	2.018
63.058	8.020	2.020	2.016
63.108	8.044	2.020	2.017
63.157	8.033	2.020	2.015
63.207	8.054	2.020	2.015
63.258	8.055	2.020	2.012
63.308	8.089	2.020	2.015
63.358	8.044	2.020	2.013
63.408	8.071	2.020	2.014
63.458	8.056	2.020	2.015
63.508	8.046	2.020	2.015
63.558	8.048	2.020	2.014
63.609	8.063	2.020	2.015
63.658	8.045	2.020	2.015
63.708	8.056	2.020	2.015
63.759	8.054	2.020	2.018
63.808	8.019	2.020	2.015
63.858	8.056	2.020	2.015
63.909	8.051	2.020	2.015
63.959	8.051	2.020	2.015
64.008	8.055	2.020	2.016
64.059	8.039	2.020	2.016
64.109	8.041	2.020	2.016
64.158	8.041	2.020	2.014
64.208	8.065	2.020	2.016
64.258	8.041	2.020	2.016
64.308	8.044	2.020	2.014
64.358	8.068	2.020	2.018
64.408	8.005	2.020	2.014
64.458	8.066	2.020	2.016
64.509	8.038	2.020	2.013
64.559	8.076	2.020	2.017
64.609	8.028	2.020	2.014
64.659	8.066	2.020	2.016
64.710	8.041	2.020	2.017
64.760	8.025	2.020	2.016
64.810	8.048	2.020	2.014
64.861	8.064	2.020	2.013
64.911	8.076	2.020	2.015
64.961	8.050	2.020	2.014
65.010	8.062	2.020	2.016
65.061	8.037	2.020	2.016
65.111	8.045	2.020	2.017
65.161	8.029	2.020	2.012
65.212	8.086	2.020	2.015
65.262	8.046	2.020	2.016
65.311	8.039	2.020	2.014
65.362	8.065	2.020	2.014
65.412	8.057	2.020	2.017
65.462	8.026	2.020	2.013
65.512	8.078	2.020	2.015
65.562	8.043	2.020	2.000
65.612	8.232	2.020	1.973
65.662	8.522	2.020	1.968
65.713	8.531	2.020	1.964
65.763	8.564	2.020	1.973
65.813	8.451	2.020	1.979
65.863	8.398	2.020	1.986
65.914	8.324	2.020	1.995
65.963	8.236	2.020	2.003
66.013	8.159	2.020	2.013
66.064	8.054	2.020	2.023
66.114	7.950	2.020	2.030
66.163	7.874	2.020	2.041
66.214	7.739	2.020	2.047
66.264	7.663	2.020	2.049
66.313	7.614	2.020	2.051
66.364	7.561	2.020	2.049
66.414	7.559	2.020	2.052
66.464	7.496	2.020	2.047
66.514	7.537	2.020	2.045
66.565	7.517	2.020	2.046
66.615	7.485	2.020	2.044
66.665	7.477	2.020	2.040
66.716	7.509	2.020	2.042
66.766	7.447	2.020	2.043
66.816	7.421	2.020	2.017
66.866	7.734	2.020	2.042
66.917	7.369	2.020	2.041
66.967	7.408	2.020	2.041
67.017	7.385	2.020	2.039
67.067	7.390	2.020	2.038
67.118	7.372	2.020	2.039
67.168	7.344	2.020	2.038
67.218	7.335	2.020	2.035
67.269	7.362	2.020	2.034
67.319	7.353	2.020	2.034
67.368	7.333	2.020	2.033
67.419	7.340	2.020	2.033
67.469	7.316	2.020	2.032
67.519	7.321	2.020	2.030
67.569	7.328	2.020	2.029
67.620	7.335	2.020	2.029
67.670	7.319	2.020	2.032
67.720	7.277	2.020	2.030
67.770	7.296	2.020	2.028
67.820	7.300	2.020	2.032
67.870	7.238	2.020	2.027
67.920	7.306	2.020	2.026
67.970	7.301	2.020	2.028
68.020	7.259	2.020	2.025
68.070	7.299	2.020	2.023
68.121	7.308	2.020	2.025
68.170	7.280	2.020	2.023
68.220	7.308	2.020	2.022
68.271	7.314	2.020	2.022
68.321	7.306	2.020	2.023
68.370	7.287	2.020	2.023
68.421	7.295	2.020	2.022
68.471	7.300	2.020	2.022
68.521	7.296	2.020	2.021
68.571	7.307	2.020	2.023
68.621	7.283	2.020	2.022
68.671	7.287	2.020	2.020
68.721	7.314	2.020	2.023
68.771	7.275	2.020	2.023
68.821	7.278	2.020	2.025
68.871	7.250	2.020	2.020
68.922	7.308	2.020	2.022
68.972	7.274	2.020	2.022
69.022	7.280	2.020	2.019
69.073	7.307	2.020	2.022
69.123	7.273	2.020	2.021
69.172	7.289	2.020	2.019
69.223	7.303	2.020	2.021
69.273	7.280	2.020	2.021
69.323	7.278	2.020	2.021
69.373	7.281	2.020	2.020
69.423	7.288	2.020	2.022
69.473	7.269	2.020	2.022
69.523	7.266	2.020	2.018
69.573	7.320	2.020	2.020
69.623	7.279	2.020	2.019
69.673	7.297	2.020	2.018
69.724	7.308	2.020	2.018
69.773	7.312	2.020	2.020
69.823	7.292	2.020	2.021
69.874	7.283	2.020	2.018
69.924	7.322	2.020	2.019
69.973	7.297	2.020	2.020
70.024	7.297	2.020	2.019
70.074	7.310	2.020	2.020
70.124	7.297	2.020	2.018
70.173	7.316	2.020	2.019
70.224	7.311	2.020	2.020
70.274	7.291	2.020	2.020
70.324	7.302	2.020	2.019
70.374	7.314	2.020	2.020
70.424	7.301	2.020	2.019
70.474	7.311	2.020	2.018
70.525	7.323	2.020	2.020
70.575	7.302	2.020	2.021
70.625	7.289	2.020	2.020
70.675	7.307	2.020	2.017
70.725	7.343	2.020	2.019
70.775	7.315	2.020	2.016
70.825	7.358	2.020	2.016
70.875	7.356	2.020	2.021
70.924	7.297	2.020	2.016
70.974	7.374	2.020	2.019
71.024	7.325	2.020	2.018
71.073	7.337	2.020	2.016
71.123	7.372	2.020	2.016
71.172	7.371	2.020	2.014
71.222	7.405	2.020	2.018
71.272	7.351	2.020	2.019
71.322	7.341	2.020	2.017
71.372	7.379	2.020	2.018
71.423	7.364	2.020	2.020
71.472	7.334	2.020	2.018
71.522	7.377	2.020	2.018
71.573	7.369	2.020	2.018
71.623	7.364	2.020	2.018
71.672	7.379	2.020	2.019
71.723	7.359	2.020	2.019
71.773	7.367	2.020	2.018
71.822	7.376	2.020	2.019
71.873	7.364	2.020	2.019
71.923	7.371	2.020	2.019
71.973	7.363	2.020	2.018
72.023	7.390	2.020	2.002
72.073	7.596	2.020	2.019
72.123	7.354	2.020	2.018
72.173	7.407	2.020	2.019
72.223	7.390	2.020	2.019
72.273	7.397	2.020	2.018
72.323	7.415	2.020	2.018
72.374	7.410	2.020	2.013
72.423	7.473	2.020	2.018
72.473	7.402	2.020	2.018
72.524	7.423	2.020	2.019
72.574	7.411	2.020	2.019
72.623	7.414	2.020	2.018
72.674	7.428	2.020	2.018
72.724	7.420	2.020	2.011
72.773	7.516	2.020	2.018
72.824	7.426	2.020	2.019
72.874	7.428	2.020	2.017
72.924	7.452	2.020	2.016
72.974	7.469	2.020	2.020
73.024	7.415	2.020	2.018
73.074	7.449	2.020	2.018
73.124	7.443	2.020	2.018
73.175	7.445	2.020	2.018
73.225	7.455	2.020	2.018
73.274	7.460	2.020	2.019
73.325	7.445	2.020	2.019
73.375	7.449	2.020	2.018
73.424	7.467	2.020	2.017
73.475	7.479	2.020	2.020
73.525	7.434	2.020	2.019
73.575	7.458	2.020	2.019
73.625	7.457	2.020	2.019
73.676	7.458	2.020	2.019
73.726	7.451	2.020	2.018
73.776	7.465	2.020	2.021
73.827	7.435	2.020	2.020
73.877	7.447	2.020	2.018
73.927	7.467	2.020	2.019
73.977	7.461	2.020	2.018
74.028	7.467	2.020	2.018
74.078	7.481	2.020	2.019
74.127	7.464	2.020	2.017
74.178	7.489	2.020	2.017
74.228	7.493	2.020	2.019
74.278	7.466	2.020	2.016
74.328	7.514	2.020	2.019
74.378	7.473	2.020	2.019
74.428	7.472	2.020	2.018
74.478	7.499	2.020	2.021
74.528	7.455	2.020	2.019
74.578	7.486	2.020	2.023
74.628	7.433	2.020	2.019
74.679	7.480	2.020	2.019
74.728	7.483	2.020	2.018
74.779	7.495	2.020	2.018
74.829	7.491	2.020	2.019
74.879	7.485	2.020	2.019
74.928	7.488	2.020	2.018
74.979	7.493	2.020	2.019
75.029	7.490	2.020	2.019
75.079	7.483	2.020	2.019
75.129	7.494	2.020	2.018
75.179	7.498	2.020	2.019
75.229	7.486	2.020	2.018
75.279	7.514	2.020	2.017
75.329	7.525	2.020	2.019
75.379	7.488	2.020	2.017
75.429	7.524	2.020	2.020
75.480	7.489	2.020	2.015
75.530	7.558	2.020	2.018
75.579	7.515	2.020	2.019
75.629	7.506	2.020	2.018
75.678	7.527	2.020	2.019
75.729	7.513	2.020	2.018
75.778	7.525	2.020	2.018
75.827	7.526	2.020	2.018
75.878	7.527	2.020	2.018
75.928	7.525	2.020	2.019
75.978	7.523	2.020	2.017
76.029	7.554	2.020	2.019
76.079	7.515	2.020	2.018
76.129	7.543	2.020	2.019
76.179	7.525	2.020	2.019
76.230	7.532	2.020	2.019
76.280	7.533	2.020	2.019
76.330	7.530	2.020	2.018
76.380	7.544	2.020	2.020
76.430	7.523	2.020	2.026
76.480	7.442	2.020	2.049
76.530	7.147	2.020	2.088
76.581	6.665	2.020	2.133
76.630	6.082	2.020	2.170
76.681	5.579	2.020	2.191
76.731	5.239	2.020	2.192
76.781	5.092	2.020	2.169
76.830	5.224	2.020	2.138
76.881	5.421	2.020	2.100
76.931	5.748	2.020	2.065
76.981	6.040	2.020	2.034
77.031	6.324	2.020	2.011
77.082	6.553	2.020	1.995
77.131	6.724	2.020	1.983
77.181	6.877	2.020	1.973
77.232	7.013	2.020	1.971
77.282	7.071	2.020	1.967
77.331	7.162	2.020	1.967
77.382	7.212	2.020	1.968
77.431	7.247	2.020	1.968
77.481	7.306	2.020	1.967
77.531	7.374	2.020	1.967
77.581	7.420	2.020	1.969
77.631	7.449	2.020	1.968
77.682	7.512	2.020	1.968
77.732	7.567	2.020	1.969
77.781	7.610	2.020	1.966
77.832	7.692	2.020	1.969
77.882	7.712	2.020	1.970
77.932	7.751	2.020	1.966
77.981	7.854	2.020	1.968
78.032	7.879	2.020	1.969
78.081	7.918	2.020	1.968
78.132	7.984	2.020	1.971
78.182	7.996	2.020	1.972
78.232	8.038	2.020	1.971
78.282	8.101	2.020	1.972
78.333	8.140	2.020	1.973
78.383	8.177	2.020	1.974
78.432	8.209	2.020	1.974
78.483	8.258	2.020	1.974
78.533	8.296	2.020	1.976
78.583	8.317	2.020	1.977
78.633	8.352	2.020	1.979
78.684	8.371	2.020	1.982
78.733	8.371	2.020	1.983
78.783	8.369	2.020	1.987
78.832	8.323	2.020	1.989
78.882	8.308	2.020	1.991
78.933	8.281	2.020	1.991
78.983	8.294	2.020	1.997
79.032	8.222	2.020	1.998
79.082	8.214	2.020	2.000
79.133	8.202	2.020	2.003
79.183	8.169	2.020	2.002
79.233	8.187	2.020	1.998
79.283	8.228	2.020	2.005
79.333	8.131	2.020	2.006
79.383	8.142	2.020	2.004
79.434	8.166	2.020	2.006
79.483	8.134	2.020	2.006
79.533	8.143	2.020	2.006
79.583	8.138	2.020	2.006
79.634	8.143	2.020	2.006
79.683	8.134	2.020	2.007
79.734	8.128	2.020	2.008
79.783	8.114	2.020	2.006
79.832	8.148	2.020	2.004
79.883	8.166	2.020	2.008
79.933	8.115	2.020	2.007
79.983	8.131	2.020	2.006
80.034	8.141	2.020	2.006
80.084	8.139	2.020	2.007
80.134	8.131	2.020	2.006
80.184	8.140	2.020	1.997
80.234	8.253	2.020	2.007
80.284	8.112	2.020	2.006
80.334	8.136	2.020	2.007
80.384	8.128	2.020	2.006
80.434	8.137	2.020	2.008
80.484	8.112	2.020	2.007
80.535	8.132	2.020	2.008
80.584	8.114	2.020	2.009
80.634	8.112	2.020	2.005
80.685	8.152	2.020	2.008
80.735	8.118	2.020	2.007
80.785	8.131	2.020	2.004
80.835	8.161	2.020	2.007
80.885	8.124	2.020	2.005
80.935	8.149	2.020	2.007
80.984	8.130	2.020	2.008
81.035	8.121	2.020	2.006
81.085	8.138	2.020	2.007
81.135	8.128	2.020	2.006
81.185	8.141	2.020	2.008
81.235	8.116	2.020	2.006
81.285	8.139	2.020	2.006
81.336	8.140	2.020	2.006
81.386	8.139	2.020	2.007
81.436	8.131	2.020	2.005
81.486	8.148	2.020	2.006
81.537	8.134	2.020	2.006
81.587	8.140	2.020	2.006
81.637	8.143	2.020	2.005
81.688	8.150	2.020	2.003
81.738	8.168	2.020	2.006
81.788	8.130	2.020	2.006
81.837	8.140	2.020	2.006
81.887	8.135	2.020	2.007
81.937	8.132	2.020	2.006
81.987	8.144	2.020	2.004
82.038	8.158	2.020	2.001
82.087	8.202	2.020	2.005
82.137	8.136	2.020	2.004
82.188	8.161	2.020	2.005
82.238	8.143	2.020	2.006
82.287	8.142	2.020	2.004
82.338	8.158	2.020	2.007
82.388	8.128	2.020	2.006
82.437	8.140	2.020	2.004
82.488	8.159	2.020	2.005
82.538	8.151	2.020	2.008
82.588	8.113	2.020	2.007
82.638	8.127	2.020	2.009
82.688	8.110	2.020	2.007
82.738	8.136	2.020	2.007
82.788	8.129	2.020	2.007
82.838	8.133	2.020	2.009
82.888	8.105	2.020	2.006
82.938	8.141	2.020	2.007
82.989	8.132	2.020	2.003
83.039	8.176	2.020	2.008
83.088	8.109	2.020	2.007
83.139	8.127	2.020	2.007
83.189	8.126	2.020	2.007
83.239	8.130	2.020	2.011
83.290	8.086	2.020	2.008
83.340	8.125	2.020	2.008
83.389	8.119	2.020	2.008
83.439	8.123	2.020	2.009
83.489	8.111	2.020	2.007
83.538	8.129	2.020	2.008
83.588	8.122	2.020	2.008
83.638	8.119	2.020	2.006
83.687	8.143	2.020	2.009
83.738	8.100	2.020	2.010
83.788	8.103	2.020	2.009
83.838	8.115	2.020	2.010
83.889	8.101	2.020	2.010
83.939	8.099	2.020	2.010
83.989	8.100	2.020	2.007
84.039	8.131	2.020	2.010
84.089	8.099	2.020	2.011
84.139	8.088	2.020	2.010
84.188	8.106	2.020	2.009
84.238	8.115	2.020	2.009
84.288	8.105	2.020	2.009
84.338	8.114	2.020	2.007
84.389	8.136	2.020	2.010
84.438	8.089	2.020	2.009
84.488	8.116	2.020	2.009
84.539	8.105	2.020	2.010
84.589	8.103	2.020	2.010
84.639	8.099	2.020	2.009
84.690	8.108	2.020	2.007
84.740	8.134	2.020	2.008
84.789	8.114	2.020	2.007
84.839	8.132	2.020	2.007
84.889	8.125	2.020	2.010
84.939	8.099	2.020	2.008
84.989	8.123	2.020	2.009
85.040	8.104	2.020	2.009
85.090	8.106	2.020	2.010
85.140	8.103	2.020	2.009
85.190	8.111	2.020	2.009
85.240	8.110	2.020	2.010
85.290	8.098	2.020	2.009
85.340	8.108	2.020	2.010
85.390	8.095	2.020	2.010
85.440	8.104	2.020	2.008
85.491	8.119	2.020	2.009
85.541	8.108	2.020	2.010
85.590	8.102	2.020	2.008
85.641	8.123	2.020	2.011
85.691	8.088	2.020	2.010
85.740	8.101	2.020	2.007
85.790	8.131	2.020	1.992
85.841	8.309	2.020	2.010
85.891	8.060	2.020	2.010
85.940	8.105	2.020	2.010
85.991	8.095	2.020	2.010
86.041	8.097	2.020	2.011
86.091	8.093	2.020	2.009
86.142	8.113	2.020	2.012
86.192	8.078	2.020	2.011
86.242	8.091	2.020	2.010
86.292	8.106	2.020	2.007
86.343	8.134	2.020	2.011
86.393	8.082	2.020	2.010
86.443	8.098	2.020	2.011
86.493	8.093	2.020	2.011
86.543	8.093	2.020	2.010
86.593	8.105	2.020	2.010
86.643	8.095	2.020	2.010
86.693	8.097	2.020	2.012
86.742	8.081	2.020	2.012
86.793	8.084	2.020	2.007
86.843	8.134	2.020	2.012
86.893	8.075	2.020	2.008
86.943	8.131	2.020	2.011
86.994	8.084	2.020	2.011
87.044	8.086	2.020	2.009
87.094	8.114	2.020	2.004
87.145	8.164	2.020	1.995
87.195	8.265	2.020	2.010
87.244	8.070	2.020	2.006
87.294	8.151	2.020	2.004
87.345	8.166	2.020	2.011
87.394	8.079	2.020	2.010
87.444	8.097	2.020	2.005
87.495	8.163	2.020	2.010
87.554	8.091	2.020	2.012
87.604	8.080	2.020	2.009
87.654	8.111	2.020	2.008
87.703	8.126	2.020	2.007
87.753	8.131	2.020	2.008
87.802	8.114	2.020	2.009
87.921	8.109	2.020	2.009
87.971	8.114	2.020	2.009
88.021	8.113	2.020	2.008
88.072	8.121	2.020	2.012
88.121	8.076	2.020	2.008
88.171	8.127	2.020	2.010
88.222	8.096	2.020	2.012
88.272	8.080	2.020	2.009
88.334	8.118	2.020	2.009
88.403	8.109	2.020	2.010
88.452	8.098	2.020	2.008
88.502	8.123	2.020	2.011
88.552	8.080	2.020	2.011
88.601	8.087	2.020	2.011
88.652	8.091	2.020	2.009
88.702	8.114	2.020	2.011
88.752	8.090	2.020	2.012
88.803	8.082	2.020	2.011
88.853	8.091	2.020	2.011
88.902	8.094	2.020	2.012
88.953	8.082	2.020	2.008
89.003	8.123	2.020	2.012
89.053	8.077	2.020	2.005
89.103	8.162	2.020	2.012
89.153	8.071	2.020	2.012
89.203	8.076	2.020	2.010
89.253	8.108	2.020	2.011
89.303	8.091	2.020	2.011
89.353	8.093	2.020	2.011
89.403	8.093	2.020	2.011
89.454	8.086	2.020	2.005
89.503	8.161	2.020	2.011
89.553	8.082	2.020	2.010
89.604	8.105	2.020	2.011
89.654	8.088	2.020	2.011
89.703	8.090	2.020	2.010
89.754	8.102	2.020	2.009
89.804	8.108	2.020	2.010
89.854	8.103	2.020	2.007
89.904	8.134	2.020	2.011
89.954	8.086	2.020	2.010
90.004	8.097	2.020	2.010
90.054	8.097	2.020	2.009
90.104	8.112	2.020	2.010
90.154	8.102	2.020	2.009
90.204	8.107	2.020	2.010
90.254	8.103	2.020	2.011
90.304	8.084	2.020	2.011
90.353	8.091	2.020	2.013
90.403	8.070	2.020	2.011
90.453	8.093	2.020	2.007
90.503	8.133	2.020	2.011
90.554	8.079	2.020	2.011
90.604	8.095	2.020	2.011
90.654	8.093	2.020	2.012
90.705	8.082	2.020	2.005
90.755	8.158	2.020	2.012
90.805	8.063	2.020	2.011
90.855	8.097	2.020	2.013
90.906	8.070	2.020	2.008
90.956	8.125	2.020	2.013
91.010	8.066	2.020	2.015
91.060	8.043	2.020	2.014
91.109	8.060	2.020	2.013
91.160	8.069	2.020	2.013
91.210	8.067	2.020	2.014
91.260	8.063	2.020	2.012
91.310	8.080	2.020	2.013
91.360	8.069	2.020	2.011
91.410	8.090	2.020	2.013
91.460	8.071	2.020	2.011
91.511	8.093	2.020	2.014
91.560	8.059	2.020	2.013
91.610	8.076	2.020	2.013
91.661	8.074	2.020	2.013
91.711	8.074	2.020	2.011
91.761	8.093	2.020	2.010
91.811	8.106	2.020	2.012
91.862	8.076	2.020	2.013
91.912	8.065	2.020	2.013
91.962	8.071	2.020	2.011
92.013	8.094	2.020	2.014
92.063	8.051	2.020	2.014
92.113	8.058	2.020	2.013
92.162	8.073	2.020	2.015
92.213	8.047	2.020	2.013
92.263	8.074	2.020	2.013
92.313	8.074	2.020	2.014
92.364	8.054	2.020	2.013
92.414	8.073	2.020	2.014
92.464	8.063	2.020	2.013
92.514	8.068	2.020	2.013
92.565	8.075	2.020	2.009
92.615	8.121	2.020	2.015
92.665	8.035	2.020	2.014
92.715	8.067	2.020	2.015
92.765	8.052	2.020	2.013
92.814	8.078	2.020	2.013
92.864	8.074	2.020	2.013
92.914	8.066	2.020	2.013
92.964	8.067	2.020	2.014
93.014	8.063	2.020	2.014
93.064	8.060	2.020	2.014
93.114	8.065	2.020	2.012
93.165	8.080	2.020	2.014
93.215	8.061	2.020	2.013
93.264	8.072	2.020	2.012
93.315	8.086	2.020	2.016
93.364	8.036	2.020	2.013
93.414	8.076	2.020	2.014
93.464	8.063	2.020	2.013
93.514	8.072	2.020	2.013
93.564	8.074	2.020	2.014
93.615	8.062	2.020	2.013
93.664	8.076	2.020	2.014
93.714	8.058	2.020	2.014
93.765	8.065	2.020	2.013
93.814	8.072	2.020	2.015
93.864	8.047	2.020	2.013
93.914	8.074	2.020	2.012
93.965	8.078	2.020	2.013
94.014	8.065	2.020	2.012
94.065	8.087	2.020	2.008
94.115	8.123	2.020	2.015
94.165	8.038	2.020	2.014
94.215	8.067	2.020	2.015
94.266	8.048	2.020	2.016
94.316	8.043	2.020	2.014
94.365	8.060	2.020	2.013
94.415	8.073	2.020	2.011
94.465	8.094	2.020	2.015
94.515	8.047	2.020	2.014
94.566	8.066	2.020	2.014
94.616	8.064	2.020	2.015
94.666	8.048	2.020	2.013
94.716	8.074	2.020	2.014
94.766	8.055	2.020	2.014
94.816	8.061	2.020	1.987
94.866	8.382	2.020	2.014
94.916	8.003	2.020	2.013
94.966	8.077	2.020	2.015
95.016	8.046	2.020	2.011
95.067	8.094	2.020	2.013
95.117	8.071	2.020	2.015
95.166	8.050	2.020	2.014
95.217	8.062	2.020	2.012
95.267	8.080	2.020	2.014
95.317	8.054	2.020	2.013
95.367	8.077	2.020	2.011
95.418	8.089	2.020	2.013
95.467	8.067	2.020	2.012
95.517	8.078	2.020	2.011
95.568	8.093	2.020	2.012
95.617	8.078	2.020	2.012
95.667	8.076	2.020	2.011
95.718	8.097	2.020	2.012
95.768	8.078	2.020	2.013
95.817	8.065	2.020	1.990
95.867	8.341	2.020	2.014
95.917	8.010	2.020	2.013
95.967	8.073	2.020	2.010
96.018	8.106	2.020	2.012
96.068	8.076	2.020	2.013
96.117	8.065	2.020	2.011
96.168	8.095	2.020	2.013
96.218	8.071	2.020	2.013
96.267	8.066	2.020	2.011
96.317	8.095	2.020	2.013
96.367	8.067	2.020	2.013
96.417	8.071	2.020	2.013
96.468	8.074	2.020	2.011
96.518	8.089	2.020	2.014
96.567	8.052	2.020	2.008
96.617	8.136	2.020	2.010
96.668	8.099	2.020	2.014
96.717	8.056	2.020	2.008
96.768	8.126	2.020	2.009
96.818	8.104	2.020	1.993
96.868	8.302	2.020	2.012
96.918	8.046	2.020	2.010
96.968	8.099	2.020	2.013
97.018	8.065	2.020	2.013
97.068	8.071	2.020	2.009
97.118	8.118	2.020	2.009
97.168	8.110	2.020	2.013
97.218	8.067	2.020	2.012
97.268	8.086	2.020	2.014
97.318	8.060	2.020	2.014
97.368	8.060	2.020	2.011
97.418	8.092	2.020	2.012
97.468	8.075	2.020	2.012
97.518	8.085	2.020	2.011
97.569	8.091	2.020	2.009
97.619	8.118	2.020	2.009
97.669	8.109	2.020	2.009
97.719	8.114	2.020	2.013
97.770	8.058	2.020	2.010
97.820	8.106	2.020	2.006
97.869	8.151	2.020	2.008
97.919	8.119	2.020	2.013
97.969	8.064	2.020	2.014
98.019	8.062	2.020	2.003
98.069	8.185	2.020	2.012
98.118	8.067	2.020	2.013
98.168	8.072	2.020	2.011
98.219	8.089	2.020	2.014
98.269	8.059	2.020	2.007
98.319	8.138	2.020	2.012
98.369	8.067	2.020	2.014
98.420	8.061	2.020	2.013
98.470	8.072	2.020	2.012
98.519	8.082	2.020	2.013
98.570	8.069	2.020	2.012
98.619	8.086	2.020	2.013
98.669	8.068	2.020	2.012
98.719	8.078	2.020	2.012
98.769	8.077	2.020	2.011
98.819	8.093	2.020	2.021
98.870	7.961	2.020	2.014
98.920	8.072	2.020	2.012
98.970	8.081	2.020	2.012
99.021	8.077	2.020	2.013
99.071	8.065	2.020	2.013
99.120	8.075	2.020	2.012
99.170	8.078	2.020	2.013
99.221	8.073	2.020	2.012
99.271	8.082	2.020	2.014
99.321	8.061	2.020	2.012
99.372	8.080	2.020	2.012
99.422	8.077	2.020	2.014
99.472	8.054	2.020	2.014
99.522	8.065	2.020	2.013
99.572	8.068	2.020	2.014
99.622	8.059	2.020	2.013
99.672	8.073	2.020	2.015
99.723	8.051	2.020	2.015
99.773	8.050	2.020	2.014
99.822	8.067	2.020	2.015
99.873	8.052	2.020	2.012
99.923	8.089	2.020	2.014
99.972	8.052	2.020	2.013
100.023	8.069	2.020	2.013
100.073	8.075	2.020	2.014
100.122	8.058	2.020	2.013
100.173	8.076	2.020	2.000
100.223	8.226	2.020	2.013
100.273	8.041	2.020	2.013
100.323	8.075	2.020	2.013
100.374	8.074	2.020	2.014
100.424	8.062	2.020	2.013
100.474	8.068	2.020	2.010
100.524	8.106	2.020	2.007
100.575	8.135	2.020	1.990
100.624	8.337	2.020	2.013
100.674	8.029	2.020	2.011
100.725	8.093	2.020	2.006
100.775	8.153	2.020	2.000
100.825	8.209	2.020	2.014
100.875	8.037	2.020	2.010
100.925	8.107	2.020	2.007
100.975	8.131	2.020	2.013
101.025	8.056	2.020	2.012
101.075	8.079	2.020	2.010
101.125	8.108	2.020	2.003
101.175	8.181	2.020	2.014
101.225	8.035	2.020	2.011
101.275	8.101	2.020	2.010
101.326	8.101	2.020	2.003
101.376	8.186	2.020	2.001
101.426	8.191	2.020	2.006
101.476	8.129	2.020	2.011
101.527	8.080	2.020	2.013
101.577	8.071	2.020	2.002
101.626	8.203	2.020	2.009
101.676	8.095	2.020	2.003
101.726	8.180	2.020	1.999
101.776	8.219	2.020	2.012
101.843	8.061	2.020	1.998
101.893	8.245	2.020	2.012
101.942	8.052	2.020	2.012
101.992	8.076	2.020	2.014
102.041	8.057	2.020	2.011
102.091	8.096	2.020	2.012
102.142	8.074	2.020	2.015
102.192	8.042	2.020	2.012
102.242	8.087	2.020	2.013
102.293	8.069	2.020	2.013
102.343	8.067	2.020	2.012
102.393	8.083	2.020	2.003
102.443	8.186	2.020	2.002
102.494	8.188	2.020	2.001
102.544	8.189	2.020	2.006
102.594	8.133	2.020	2.011
102.645	8.084	2.020	2.013
102.695	8.066	2.020	2.012
102.745	8.086	2.020	2.018
102.795	8.009	2.020	2.017
102.845	8.037	2.020	2.015
102.895	8.054	2.020	2.017
102.945	8.031	2.020	2.016
102.996	8.039	2.020	2.010
103.047	8.116	2.020	2.016
103.097	8.033	2.020	2.016
103.147	8.044	2.020	2.013
103.198	8.072	2.020	2.012
103.248	8.079	2.020	2.014
103.298	8.061	2.020	2.013
103.348	8.076	2.020	2.011
103.398	8.097	2.020	2.013
103.448	8.066	2.020	2.014
103.498	8.055	2.020	2.014
103.549	8.065	2.020	2.014
103.599	8.064	2.020	2.014
103.649	8.056	2.020	2.013
103.699	8.069	2.020	2.012
103.750	8.087	2.020	2.013
103.800	8.064	2.020	2.014
103.849	8.063	2.020	2.014
103.900	8.060	2.020	2.012
103.950	8.088	2.020	2.013
104.000	8.064	2.020	2.012
104.050	8.087	2.020	2.014
104.100	8.060	2.020	2.014
104.150	8.064	2.020	1.996
104.200	8.279	2.020	2.015
104.250	8.016	2.020	2.013
104.300	8.078	2.020	2.013
104.350	8.074	2.020	2.014
104.401	8.058	2.020	2.013
104.450	8.073	2.020	2.013
104.500	8.071	2.020	2.012
104.551	8.078	2.020	2.013
104.601	8.065	2.020	2.014
104.651	8.063	2.020	2.012
104.702	8.080	2.020	2.012
104.752	8.081	2.020	2.013
104.802	8.069	2.020	2.014
104.852	8.055	2.020	2.014
104.902	8.061	2.020	2.014
104.952	8.061	2.020	2.012
105.002	8.080	2.020	2.013
105.052	8.069	2.020	2.013
105.102	8.067	2.020	2.014
105.152	8.059	2.020	2.013
105.202	8.073	2.020	2.012
105.252	8.086	2.020	2.014
105.302	8.060	2.020	2.013
105.352	8.068	2.020	2.012
105.403	8.083	2.020	2.014
105.453	8.057	2.020	2.015
105.503	8.053	2.020	2.014
105.554	8.066	2.020	2.014
105.604	8.056	2.020	2.015
105.654	8.050	2.020	2.013
105.704	8.071	2.020	2.015
105.754	8.052	2.020	2.014
105.804	8.058	2.020	2.014
105.854	8.061	2.020	2.013
105.905	8.069	2.020	2.015
105.955	8.048	2.020	2.014
106.005	8.067	2.020	2.012
106.055	8.084	2.020	2.011
106.106	8.092	2.020	2.014
106.155	8.055	2.020	2.013
106.205	8.076	2.020	2.013
106.255	8.066	2.020	2.014
106.304	8.063	2.020	2.013
106.355	8.072	2.020	2.013
106.405	8.067	2.020	2.014
106.455	8.063	2.020	2.014
106.505	8.064	2.020	2.015
106.555	8.048	2.020	2.013
106.605	8.071	2.020	2.016
106.654	8.040	2.020	2.015
106.704	8.052	2.020	2.017
106.754	8.024	2.020	2.014
106.804	8.063	2.020	2.015
106.853	8.046	2.020	2.014
106.903	8.059	2.020	2.014
106.954	8.065	2.020	2.015
107.003	8.052	2.020	2.014
107.053	8.066	2.020	2.014
107.103	8.064	2.020	2.015
107.152	8.048	2.020	2.012
107.202	8.090	2.020	2.014
107.252	8.056	2.020	2.014
107.301	8.061	2.020	2.011
107.352	8.092	2.020	2.014
107.402	8.056	2.020	2.014
107.451	8.061	2.020	2.015
107.502	8.049	2.020	2.013
107.552	8.074	2.020	2.014
107.601	8.059	2.020	2.013
107.652	8.072	2.020	2.014
107.702	8.063	2.020	2.016
107.751	8.040	2.020	2.013
107.801	8.080	2.020	2.011
107.851	8.090	2.020	2.016
107.901	8.028	2.020	2.012
107.951	8.089	2.020	2.015
108.001	8.049	2.020	2.015
108.051	8.054	2.020	2.013
108.102	8.070	2.020	2.014
108.152	8.059	2.020	2.016
108.201	8.037	2.020	2.014
108.252	8.061	2.020	2.015
108.302	8.050	2.020	2.013
108.352	8.074	2.020	2.015
108.401	8.047	2.020	2.013
108.452	8.078	2.020	2.014
108.502	8.054	2.020	2.015
108.551	8.054	2.020	2.015
108.602	8.050	2.020	2.015
108.652	8.047	2.020	2.016
108.702	8.040	2.020	2.015
108.753	8.053	2.020	2.016
108.803	8.039	2.020	2.015
108.852	8.057	2.020	2.015
108.903	8.054	2.020	2.015
108.953	8.050	2.020	2.015
109.003	8.055	2.020	2.015
109.053	8.054	2.020	2.012
109.103	8.089	2.020	2.017
109.152	8.025	2.020	2.014
109.202	8.070	2.020	2.014
109.253	8.060	2.020	1.992
109.303	8.319	2.020	2.016
109.353	7.998	2.020	2.016
109.403	8.041	2.020	2.014
109.453	8.065	2.020	2.010
109.503	8.112	2.020	2.012
109.553	8.072	2.020	2.014
109.604	8.061	2.020	2.013
109.653	8.068	2.020	2.015
109.703	8.052	2.020	2.016
109.753	8.039	2.020	2.016
109.803	8.041	2.020	2.014
109.853	8.065	2.020	2.014
109.904	8.057	2.020	2.015
109.954	8.050	2.020	2.014
110.004	8.063	2.020	2.010
110.055	8.104	2.020	2.014
110.105	8.054	2.020	2.013
110.155	8.069	2.020	2.013
110.205	8.067	2.020	2.014
110.256	8.063	2.020	2.015
110.306	8.048	2.020	2.013
110.356	8.074	2.020	2.011
110.407	8.094	2.020	2.014
110.457	8.059	2.020	2.013
110.506	8.068	2.020	2.011
110.557	8.099	2.020	2.013
110.607	8.066	2.020	2.012
110.657	8.078	2.020	2.013
110.707	8.069	2.020	2.005
110.757	8.164	2.020	2.012
110.807	8.067	2.020	2.014
110.857	8.053	2.020	2.011
110.907	8.093	2.020	2.013
110.957	8.067	2.020	2.012
111.007	8.082	2.020	2.012
111.058	8.080	2.020	2.013
111.108	8.069	2.020	2.014
111.157	8.055	2.020	2.011
111.208	8.097	2.020	2.012
111.258	8.074	2.020	2.013
111.307	8.069	2.020	2.011
111.358	8.094	2.020	2.013
111.408	8.071	2.020	2.013
111.458	8.070	2.020	2.014
111.508	8.055	2.020	2.012
111.559	8.089	2.020	2.013
111.609	8.068	2.020	2.014
111.659	8.059	2.020	2.014
111.709	8.065	2.020	2.013
111.759	8.072	2.020	2.014
111.809	8.055	2.020	2.010
111.858	8.104	2.020	2.012
111.908	8.073	2.020	2.013
111.958	8.069	2.020	2.014
112.008	8.059	2.020	2.014
112.059	8.065	2.020	2.014
112.108	8.064	2.020	2.010
112.158	8.103	2.020	2.009
112.209	8.116	2.020	2.013
112.259	8.062	2.020	2.014
112.309	8.055	2.020	2.010
112.360	8.112	2.020	2.014
112.410	8.052	2.020	2.011
112.460	8.092	2.020	2.010
112.510	8.099	2.020	2.011
112.560	8.089	2.020	2.014
112.610	8.055	2.020	2.011
112.660	8.100	2.020	2.012
112.710	8.074	2.020	2.013
112.760	8.065	2.020	2.013
112.810	8.071	2.020	2.014
112.861	8.055	2.020	2.012
112.911	8.085	2.020	2.014
112.961	8.053	2.020	2.012
113.011	8.085	2.020	2.013
113.062	8.073	2.020	2.015
113.112	8.050	2.020	2.014
113.162	8.062	2.020	2.011
113.212	8.096	2.020	2.013
113.263	8.071	2.020	2.014
113.313	8.058	2.020	2.013
113.363	8.069	2.020	2.011
113.414	8.091	2.020	2.015
113.464	8.044	2.020	2.012
113.513	8.082	2.020	2.015
113.564	8.042	2.020	2.014
113.614	8.067	2.020	2.011
113.663	8.099	2.020	2.014
113.714	8.058	2.020	2.013
113.763	8.072	2.020	2.013
113.812	8.074	2.020	2.013
113.863	8.074	2.020	2.012
113.913	8.082	2.020	2.012
113.962	8.076	2.020	2.013
114.013	8.065	2.020	2.009
114.063	8.118	2.020	2.014
114.113	8.047	2.020	2.013
114.163	8.069	2.020	2.014
114.213	8.063	2.020	2.009
114.263	8.115	2.020	2.011
114.314	8.083	2.020	2.014
114.364	8.056	2.020	2.014
114.414	8.061	2.020	2.012
114.464	8.080	2.020	2.013
114.514	8.069	2.020	2.013
114.564	8.074	2.020	2.014
114.614	8.062	2.020	2.011
114.665	8.095	2.020	2.012
114.715	8.082	2.020	2.013
114.764	8.064	2.020	2.010
114.815	8.102	2.020	1.991
114.865	8.328	2.020	2.013
114.915	8.023	2.020	2.011
114.965	8.091	2.020	2.011
115.016	8.095	2.020	2.014
115.066	8.058	2.020	2.012
115.115	8.084	2.020	2.013
115.165	8.069	2.020	2.014
115.214	8.063	2.020	2.014
115.264	8.064	2.020	2.012
115.314	8.080	2.020	2.013
115.363	8.073	2.020	2.009
115.414	8.113	2.020	2.013
115.464	8.063	2.020	2.013
115.513	8.071	2.020	2.011
115.564	8.094	2.020	2.013
115.614	8.063	2.020	2.012
115.664	8.087	2.020	2.011
115.714	8.091	2.020	2.013
115.764	8.071	2.020	2.010
115.814	8.101	2.020	2.010
115.864	8.104	2.020	2.011
115.914	8.088	2.020	2.011
115.963	8.086	2.020	2.013
116.014	8.071	2.020	2.014
116.064	8.054	2.020	2.014
116.114	8.065	2.020	2.012
116.164	8.080	2.020	2.011
116.215	8.097	2.020	2.013
116.265	8.062	2.020	2.013
116.315	8.067	2.020	2.011
116.366	8.091	2.020	2.015
116.416	8.048	2.020	2.013
116.466	8.078	2.020	2.013
116.516	8.066	2.020	2.012
116.567	8.083	2.020	2.014
116.617	8.053	2.020	2.014
116.667	8.061	2.020	2.014
116.717	8.061	2.020	2.012
116.768	8.084	2.020	2.013
116.818	8.065	2.020	1.993
116.867	8.307	2.020	2.012
116.918	8.044	2.020	2.014
116.968	8.057	2.020	2.013
117.017	8.069	2.020	2.012
117.068	8.087	2.020	2.012
117.118	8.084	2.020	2.013
117.167	8.064	2.020	2.013
117.218	8.075	2.020	2.013
117.268	8.066	2.020	2.014
117.317	8.063	2.020	2.014
117.368	8.060	2.020	2.014
117.417	8.065	2.020	2.008
117.466	8.131	2.020	2.011
117.517	8.088	2.020	2.013
117.567	8.062	2.020	2.014
117.617	8.063	2.020	2.011
117.668	8.095	2.020	2.012
117.718	8.078	2.020	2.014
117.767	8.053	2.020	2.011
117.822	8.096	2.020	2.016
117.872	8.028	2.020	2.013
117.922	8.077	2.020	2.012
117.972	8.086	2.020	2.012
118.023	8.076	2.020	2.015
118.073	8.046	2.020	2.009
118.122	8.118	2.020	2.012
118.173	8.071	2.020	2.014
118.223	8.061	2.020	2.011
118.272	8.091	2.020	2.013
118.323	8.063	2.020	2.012
118.373	8.079	2.020	2.013
118.423	8.065	2.020	2.013
118.473	8.075	2.020	2.011
118.523	8.097	2.020	2.013
118.572	8.062	2.020	2.012
118.623	8.083	2.020	2.014
118.673	8.057	2.020	2.013
118.723	8.069	2.020	2.012
118.773	8.079	2.020	2.005
118.823	8.163	2.020	2.013
118.873	8.051	2.020	2.011
118.923	8.091	2.020	2.014
118.974	8.059	2.020	2.008
119.023	8.131	2.020	2.012
119.073	8.069	2.020	2.012
119.124	8.077	2.020	2.013
119.174	8.069	2.020	2.014
119.224	8.063	2.020	2.012
119.274	8.080	2.020	2.012
119.324	8.081	2.020	2.013
119.374	8.069	2.020	2.014
119.424	8.063	2.020	2.012
119.474	8.080	2.020	2.012
119.524	8.077	2.020	2.009
119.574	8.120	2.020	2.015
119.624	8.039	2.020	2.012
119.674	8.086	2.020	2.013
119.724	8.069	2.020	2.014
119.775	8.063	2.020	2.013
119.824	8.068	2.020	2.012
119.875	8.079	2.020	2.013
119.925	8.069	2.020	2.010
119.975	8.102	2.020	2.003
120.025	8.179	2.020	1.998
120.075	8.228	2.020	1.992
120.125	8.288	2.020	1.994
120.174	8.260	2.020	1.994
120.225	8.263	2.020	1.996
120.275	8.236	2.020	1.998
120.325	8.217	2.020	2.000
120.375	8.193	2.020	1.989
120.425	8.331	2.020	1.969
120.474	8.556	2.020	1.962
120.525	8.592	2.020	1.983
120.575	8.325	2.020	2.008
120.625	8.066	2.020	2.052
120.675	5.988	2.020	2.123
120.725	0.065	2.020	2.243
120.775	0.000	2.020	2.417
120.826	0.000	2.020	2.425
120.876	0.000	2.020	2.322
120.926	0.000	2.020	2.213
120.976	0.000	2.020	2.122
121.026	0.000	2.020	2.058
121.076	0.000	2.020	2.018
121.126	0.000	2.020	1.994
121.176	0.000	2.020	1.979
121.226	0.000	2.020	1.971
121.276	2.440	2.020	1.970
121.326	4.914	2.020	1.970
121.376	7.402	2.020	1.970
121.426	8.502	2.020	1.968
121.476	8.524	2.020	1.968
121.526	8.521	2.020	1.967
121.576	8.528	2.020	1.966
121.627	8.543	2.020	1.967
121.677	8.524	2.020	1.967
121.727	8.527	2.020	1.967
121.777	8.531	2.020	1.965
121.828	8.558	2.020	1.968
121.878	8.514	2.020	1.968
121.928	8.517	2.020	1.968
121.978	8.517	2.020	1.969
122.028	8.506	2.020	1.970
122.078	8.504	2.020	1.971
122.128	8.489	2.020	1.973
122.179	8.464	2.020	1.974
122.229	8.457	2.020	1.977
122.279	8.427	2.020	1.980
122.329	8.394	2.020	1.983
122.380	8.369	2.020	1.987
122.430	8.327	2.020	1.990
122.480	8.288	2.020	1.992
122.530	8.280	2.020	1.999
122.580	8.192	2.020	2.004
122.630	8.153	2.020	2.005
122.680	8.146	2.020	2.013
122.730	8.055	2.020	2.015
122.780	8.051	2.020	2.014
122.830	8.066	2.020	2.017
122.880	8.021	2.020	2.016
122.930	8.048	2.020	2.014
122.980	8.060	2.020	2.015
123.031	8.054	2.020	2.009
123.081	8.117	2.020	2.015
123.130	8.040	2.020	2.015
123.181	8.051	2.020	2.014
123.231	8.063	2.020	2.008
123.281	8.127	2.020	2.000
123.332	8.214	2.020	2.003
123.382	8.159	2.020	2.011
123.432	8.075	2.020	2.013
123.482	8.067	2.020	2.014
123.533	8.063	2.020	2.019
123.583	8.001	2.020	2.018
123.633	8.020	2.020	2.018
123.683	8.026	2.020	2.018
123.734	8.021	2.020	2.017
123.783	8.033	2.020	2.011
123.833	8.106	2.020	2.013
123.883	8.066	2.020	2.002
123.932	8.204	2.020	2.007
123.983	8.119	2.020	2.014
124.033	8.051	2.020	2.013
124.083	8.068	2.020	2.017
124.133	8.028	2.020	2.013
124.183	8.082	2.020	2.014
124.233	8.062	2.020	2.013
124.283	8.072	2.020	2.004
124.333	8.180	2.020	2.011
124.383	8.076	2.020	2.008
124.433	8.129	2.020	2.016
124.484	8.025	2.020	2.003
124.533	8.202	2.020	2.011
124.583	8.073	2.020	2.012
124.634	8.075	2.020	2.016
124.684	8.038	2.020	2.009
124.733	8.123	2.020	2.016
124.784	8.024	2.020	2.015
124.834	8.058	2.020	2.017
124.884	8.031	2.020	2.016
124.934	8.039	2.020	2.019
124.985	8.007	2.020	2.018
125.035	8.028	2.020	2.018
125.085	8.021	2.020	2.016
125.136	8.045	2.020	2.018
125.186	8.022	2.020	2.017
125.236	8.037	2.020	2.016
125.286	8.039	2.020	2.014
125.337	8.061	2.020	2.018
125.387	8.018	2.020	2.014
125.437	8.068	2.020	2.015
125.487	8.053	2.020	2.014
125.538	8.066	2.020	2.015
125.588	8.052	2.020	2.015
125.638	8.046	2.020	2.015
125.688	8.052	2.020	2.014
125.738	8.063	2.020	2.017
125.788	8.029	2.020	2.015
125.838	8.058	2.020	2.016
125.889	8.043	2.020	2.017
125.939	8.029	2.020	2.008
125.989	8.137	2.020	2.016
126.040	8.026	2.020	2.016
126.090	8.037	2.020	2.016
126.139	8.038	2.020	2.014
126.190	8.061	2.020	2.014
126.240	8.058	2.020	2.015
126.290	8.046	2.020	2.015
126.340	8.052	2.020	2.017
126.390	8.031	2.020	2.016
126.440	8.039	2.020	2.016
126.490	8.038	2.020	2.014
126.541	8.069	2.020	2.016
126.591	8.037	2.020	2.017
126.641	8.029	2.020	2.016
126.691	8.043	2.020	2.014
126.742	8.061	2.020	2.016
126.792	8.034	2.020	2.017
126.842	8.034	2.020	2.017
126.893	8.031	2.020	2.016
126.943	8.043	2.020	2.015
126.993	8.049	2.020	2.016
127.043	8.040	2.020	2.015
127.094	8.049	2.020	2.017
127.144	8.032	2.020	2.016
127.193	8.046	2.020	2.014
127.244	8.060	2.020	2.016
127.294	8.042	2.020	2.016
127.344	8.037	2.020	2.016
127.395	8.046	2.020	2.018
127.445	8.017	2.020	2.015
127.495	8.053	2.020	2.016
127.545	8.036	2.020	2.018
127.596	8.022	2.020	2.016
127.646	8.048	2.020	2.015
127.696	8.052	2.020	2.016
127.746	8.039	2.020	2.013
127.797	8.072	2.020	2.016
127.847	8.040	2.020	2.015
127.896	8.052	2.020	2.015
127.947	8.047	2.020	2.015
127.997	8.052	2.020	2.017
128.047	8.028	2.020	2.014
128.097	8.063	2.020	2.014
128.148	8.058	2.020	2.012
128.198	8.081	2.020	2.014
128.248	8.054	2.020	2.013
128.298	8.073	2.020	2.015
128.348	8.047	2.020	2.016
128.397	8.043	2.020	2.016
128.448	8.041	2.020	2.016
128.498	8.045	2.020	2.016
128.548	8.041	2.020	2.015
128.598	8.049	2.020	2.018
128.649	8.017	2.020	2.017
128.699	8.029	2.020	2.013
128.749	8.079	2.020	2.010
128.799	8.106	2.020	2.015
128.849	8.041	2.020	2.017
128.899	8.031	2.020	2.014
128.949	8.062	2.020	2.016
128.999	8.034	2.020	2.015
129.049	8.050	2.020	2.015
129.099	8.056	2.020	2.016
129.149	8.035	2.020	2.001
129.199	8.226	2.020	2.018
129.250	7.988	2.020	2.017
129.300	8.033	2.020	2.017
129.349	8.031	2.020	2.017
129.400	8.035	2.020	2.017
129.450	8.035	2.020	2.017
129.499	8.027	2.020	2.014
129.549	8.063	2.020	2.015
129.600	8.050	2.020	2.018
129.649	8.020	2.020	2.016
129.699	8.041	2.020	2.017
129.749	8.034	2.020	2.016
129.798	8.046	2.020	2.018
129.849	8.021	2.020	2.016
129.899	8.048	2.020	2.017
129.948	8.033	2.020	2.013
129.998	8.074	2.020	2.016
130.048	8.036	2.020	2.016
130.098	8.037	2.020	2.015
130.148	8.050	2.020	2.016
130.198	8.036	2.020	2.015
130.248	8.050	2.020	2.015
130.298	8.052	2.020	2.014
130.348	8.059	2.020	2.016
130.399	8.034	2.020	2.015
130.449	8.054	2.020	2.017
130.500	8.028	2.020	2.016
130.550	8.043	2.020	2.015
130.600	8.049	2.020	2.016
130.650	8.044	2.020	2.015
130.700	8.052	2.020	2.017
130.749	8.031	2.020	2.016
130.799	8.039	2.020	2.015
130.849	8.050	2.020	2.015
130.898	8.048	2.020	2.013
130.948	8.071	2.020	2.015
130.998	8.044	2.020	2.016
131.048	8.036	2.020	2.014
131.098	8.061	2.020	2.016
131.147	8.034	2.020	2.013
131.197	8.073	2.020	2.007
131.247	8.146	2.020	2.016
131.297	8.023	2.020	2.014
131.347	8.065	2.020	2.016
131.397	8.033	2.020	2.017
131.447	8.026	2.020	2.015
131.497	8.059	2.020	2.015
131.548	8.046	2.020	2.016
131.597	8.040	2.020	2.015
131.647	8.053	2.020	2.013
131.698	8.074	2.020	2.017
131.747	8.023	2.020	2.015
131.797	8.055	2.020	2.014
131.848	8.067	2.020	2.017
131.897	8.029	2.020	2.015
131.947	8.050	2.020	2.016
131.997	8.040	2.020	2.012
132.047	8.092	2.020	2.015
132.097	8.041	2.020	2.015
132.148	8.052	2.020	2.016
132.198	8.035	2.020	2.017
132.248	8.030	2.020	2.017
132.298	8.035	2.020	2.016
132.349	8.039	2.020	2.018
132.398	8.022	2.020	2.017
132.448	8.029	2.020	2.016
132.498	8.040	2.020	2.017
132.547	8.034	2.020	2.015
132.598	8.058	2.020	2.016
132.648	8.035	2.020	2.017
132.698	8.030	2.020	2.016
132.748	8.047	2.020	2.014
132.799	8.064	2.020	2.018
132.849	8.018	2.020	2.017
132.898	8.033	2.020	2.014
132.949	8.067	2.020	2.012
132.999	8.080	2.020	2.018
133.049	8.014	2.020	2.017
133.099	8.029	2.020	2.014
133.149	8.063	2.020	2.010
133.199	8.104	2.020	2.015
133.249	8.038	2.020	2.015
133.300	8.048	2.020	2.018
133.350	8.013	2.020	2.015
133.399	8.062	2.020	2.017
133.450	8.027	2.020	2.017
133.500	8.035	2.020	2.016
133.550	8.039	2.020	2.019
133.600	8.007	2.020	2.017
133.650	8.039	2.020	2.016
133.700	8.046	2.020	2.016
133.750	8.044	2.020	2.017
133.800	8.033	2.020	2.017
133.850	8.031	2.020	2.015
133.901	8.051	2.020	2.018
133.951	8.020	2.020	2.020
134.001	7.998	2.020	2.020
134.051	7.992	2.020	2.015
134.102	8.061	2.020	2.017
134.152	8.031	2.020	2.018
134.202	8.015	2.020	2.017
134.252	8.034	2.020	2.000
134.303	8.234	2.020	2.020
134.353	7.962	2.020	2.018
134.403	8.022	2.020	2.018
134.454	8.022	2.020	2.019
134.504	8.002	2.020	2.019
134.554	8.005	2.020	2.019
134.604	8.009	2.020	2.018
134.655	8.024	2.020	2.015
134.705	8.057	2.020	2.018
134.755	8.016	2.020	2.019
134.805	8.002	2.020	2.019
134.855	8.009	2.020	2.020
134.905	7.991	2.020	2.020
134.955	8.003	2.020	2.019
135.006	8.010	2.020	2.021
135.055	7.930	2.020	2.019
135.105	8.001	2.020	2.019
135.156	8.005	2.020	2.020
135.205	7.971	2.020	2.019
135.255	8.011	2.020	2.021
135.306	7.930	2.020	2.021
135.356	7.879	2.020	2.021
135.405	7.845	2.020	2.020
135.456	7.866	2.020	2.020
135.506	7.855	2.020	2.020
135.555	7.870	2.020	2.018
135.606	7.960	2.020	2.019
135.655	7.993	2.020	2.018
135.704	8.028	2.020	2.019
135.755	8.001	2.020	2.019
135.805	8.005	2.020	2.019
135.854	8.009	2.020	2.020
135.904	8.001	2.020	2.016
135.954	8.045	2.020	2.021
136.004	7.945	2.020	2.019
136.054	8.016	2.020	2.021
136.104	7.950	2.020	2.019
136.153	7.996	2.020	2.020
136.203	7.980	2.020	2.018
136.253	8.022	2.020	2.021
136.303	7.949	2.020	2.019
136.352	7.996	2.020	2.020
136.402	8.000	2.020	2.019
136.452	8.014	2.020	2.011
136.501	8.110	2.020	2.018
136.551	8.007	2.020	2.021
136.601	7.948	2.020	2.020
136.650	7.976	2.020	2.019
136.701	8.005	2.020	2.019
136.750	8.009	2.020	2.020
136.800	7.991	2.020	2.014
136.851	8.069	2.020	2.018
136.901	8.007	2.020	2.021
136.950	7.929	2.020	2.019
137.001	7.980	2.020	2.019
137.050	8.009	2.020	2.019
137.100	8.009	2.020	2.018
137.150	8.024	2.020	2.018
137.200	8.014	2.020	2.019
137.249	8.007	2.020	2.018
137.299	8.024	2.020	2.021
137.349	7.948	2.020	2.019
137.399	8.016	2.020	2.020
137.449	7.990	2.020	2.020
137.499	7.967	2.020	2.020
137.549	7.945	2.020	2.020
137.599	7.943	2.020	2.016
137.649	8.054	2.020	2.021
137.699	7.903	2.020	2.020
137.750	7.924	2.020	2.020
137.799	7.916	2.020	2.021
137.849	7.870	2.020	2.020
137.900	7.853	2.020	2.019
137.950	7.911	2.020	2.013
137.999	8.083	2.020	2.021
138.050	7.938	2.020	2.020
138.100	7.956	2.020	2.019
138.150	8.014	2.020	2.019
138.200	8.004	2.020	2.016
138.251	8.044	2.020	2.020
138.300	7.985	2.020	2.018
138.350	8.026	2.020	2.020
138.401	7.998	2.020	2.021
138.451	7.952	2.020	2.018
138.500	8.020	2.020	2.018
138.551	8.015	2.020	2.019
138.601	8.003	2.020	2.019
138.650	8.013	2.020	2.019
138.701	8.004	2.020	2.018
138.751	8.017	2.020	2.020
138.800	7.969	2.020	2.019
138.850	8.015	2.020	2.019
138.901	8.004	2.020	2.020
138.951	7.971	2.020	2.019
139.001	8.011	2.020	2.018
139.052	8.016	2.020	2.020
139.102	7.990	2.020	2.020
139.152	7.987	2.020	2.019
139.202	8.007	2.020	2.020
139.253	7.992	2.020	2.022
139.303	7.886	2.020	2.021
139.353	7.822	2.020	2.008
139.404	8.150	2.020	2.020
139.454	7.948	2.020	2.022
139.503	7.850	2.020	2.020
139.553	7.851	2.020	2.019
139.603	7.886	2.020	2.020
139.653	7.870	2.020	2.015
139.703	8.065	2.020	2.020
139.753	7.992	2.020	2.021
139.802	7.952	2.020	2.020
139.852	7.976	2.020	2.020
139.902	7.944	2.020	2.019
139.951	8.004	2.020	2.020
140.001	8.001	2.020	2.021
140.051	7.932	2.020	2.020
140.101	7.940	2.020	2.019
140.152	7.993	2.020	2.021
140.201	7.892	2.020	2.020
140.252	7.907	2.020	2.020
140.302	7.878	2.020	2.022
140.351	7.755	2.020	2.020
140.401	7.797	2.020	2.019
140.452	7.843	2.020	2.020
140.501	7.824	2.020	2.021
140.551	7.780	2.020	2.021
140.602	7.742	2.020	2.019
140.652	7.785	2.020	2.020
140.702	7.789	2.020	2.019
140.752	7.860	2.020	2.021
140.803	7.797	2.020	2.020
140.853	7.823	2.020	2.020
140.903	7.811	2.020	2.016
140.954	8.053	2.020	2.019
141.004	8.001	2.020	2.020
141.053	7.971	2.020	2.019
141.104	8.015	2.020	2.020
141.154	7.990	2.020	2.020
141.204	7.967	2.020	2.019
141.255	8.015	2.020	2.019
141.305	8.008	2.020	2.018
141.355	8.016	2.020	2.019
141.405	8.011	2.020	2.018
141.455	8.016	2.020	2.011
141.506	8.109	2.020	2.018
141.556	7.999	2.020	2.018
141.606	8.027	2.020	2.018
141.657	8.021	2.020	2.018
141.707	8.022	2.020	2.020
141.756	7.988	2.020	2.018
141.807	8.026	2.020	2.016
141.857	8.049	2.020	2.018
141.907	8.013	2.020	2.020
141.957	7.989	2.020	2.015
142.008	8.057	2.020	2.018
142.058	8.013	2.020	2.019
142.108	8.011	2.020	2.019
142.158	8.012	2.020	2.013
142.209	8.078	2.020	2.018
142.258	8.012	2.020	2.017
142.308	8.029	2.020	2.019
142.359	8.001	2.020	2.019
142.409	8.005	2.020	2.018
142.459	8.025	2.020	2.019
142.510	8.006	2.020	2.019
142.560	8.013	2.020	2.020
142.609	8.000	2.020	2.019
142.659	8.010	2.020	2.018
142.709	8.020	2.020	2.019
142.759	8.003	2.020	2.018
142.809	8.017	2.020	2.019
142.858	8.007	2.020	2.018
142.908	8.016	2.020	2.017
142.958	8.039	2.020	2.020
143.008	7.966	2.020	2.018
143.057	8.019	2.020	2.017
143.107	8.035	2.020	2.020
143.157	7.986	2.020	2.019
143.207	8.011	2.020	2.020
143.257	7.971	2.020	2.021
143.307	7.891	2.020	2.019
143.357	7.983	2.020	2.019
143.408	7.997	2.020	2.020
143.457	8.001	2.020	2.018
143.507	8.026	2.020	2.019
143.558	8.006	2.020	2.020
143.608	8.001	2.020	2.019
143.657	8.010	2.020	2.019
143.708	8.005	2.020	2.019
143.758	8.013	2.020	2.020
143.807	7.970	2.020	2.018
143.858	8.031	2.020	2.019
143.908	8.001	2.020	2.021
143.958	7.931	2.020	2.020
144.008	7.940	2.020	2.020
144.058	7.912	2.020	2.020
144.107	7.931	2.020	2.018
144.158	8.029	2.020	2.020
144.207	7.997	2.020	2.020
144.257	8.002	2.020	2.018
144.308	8.029	2.020	2.019
144.358	8.005	2.020	2.020
144.407	7.971	2.020	2.019
144.458	8.007	2.020	2.018
144.507	8.021	2.020	2.019
144.556	8.003	2.020	2.020
144.607	7.971	2.020	2.021
144.656	7.911	2.020	2.021
144.706	7.837	2.020	2.019
144.755	7.888	2.020	2.020
144.804	7.850	2.020	2.014
144.854	8.078	2.020	2.011
144.903	8.092	2.020	2.007
144.954	8.141	2.020	2.008
145.004	8.113	2.020	2.018
145.053	7.994	2.020	2.020
145.103	7.969	2.020	2.021
145.152	7.891	2.020	2.020
145.202	7.902	2.020	2.021
145.252	7.853	2.020	2.021
145.301	7.776	2.020	2.019
145.352	7.868	2.020	2.022
145.402	7.720	2.020	2.019
145.452	7.784	2.020	2.020
145.502	7.745	2.020	2.022
145.553	7.624	2.020	2.021
145.602	7.584	2.020	2.020
145.651	7.568	2.020	2.019
145.702	7.605	2.020	2.022
145.752	7.468	2.020	2.021
145.802	7.410	2.020	2.019
145.853	7.479	2.020	2.010
145.903	8.063	2.020	2.021
145.952	7.861	2.020	2.018
146.003	7.990	2.020	2.019
146.053	8.000	2.020	2.019
146.102	8.013	2.020	2.018
146.152	8.020	2.020	2.019
146.202	8.007	2.020	2.020
146.251	8.001	2.020	2.020
146.302	7.992	2.020	2.020
146.352	8.003	2.020	2.020
146.401	7.972	2.020	2.021
146.452	7.931	2.020	2.021
146.502	7.893	2.020	2.020
146.552	7.895	2.020	2.018
146.601	8.026	2.020	2.020
146.652	7.998	2.020	2.020
146.701	7.972	2.020	2.018
146.752	8.027	2.020	2.019
146.802	8.006	2.020	2.023
146.851	7.789	2.020	2.019
146.902	7.871	2.020	2.019
146.952	7.890	2.020	2.022
147.002	7.755	2.020	2.024
147.052	7.515	2.020	2.019
147.103	7.625	2.020	2.020
147.153	7.577	2.020	2.019
147.203	7.638	2.020	2.020
147.253	7.638	2.020	2.021
147.303	7.589	2.020	2.020
147.353	7.613	2.020	2.018
147.403	7.723	2.020	2.020
147.453	7.690	2.020	2.019
147.503	7.749	2.020	2.018
147.553	7.851	2.020	2.020
147.603	7.840	2.020	2.013
147.653	8.084	2.020	2.004
147.703	8.176	2.020	1.998
147.753	8.233	2.020	1.995
147.803	8.252	2.020	1.992
147.853	8.290	2.020	1.989
147.904	8.314	2.020	1.991
147.954	8.281	2.020	1.992
148.003	8.274	2.020	1.997
148.054	8.225	2.020	2.000
148.104	8.198	2.020	2.003
148.154	8.157	2.020	2.007
148.204	8.122	2.020	2.013
148.255	8.063	2.020	2.017
148.305	8.027	2.020	2.020
148.355	7.986	2.020	2.024
148.406	7.745	2.020	2.026
148.456	7.429	2.020	2.027
148.506	7.053	2.020	2.027
148.556	6.711	2.020	2.026
148.606	6.403	2.020	2.028
148.655	6.005	2.020	2.025
148.705	5.768	2.020	2.026
148.755	5.477	2.020	2.023
148.804	5.377	2.020	2.020
148.854	5.396	2.020	2.016
148.904	5.627	2.020	2.012
148.954	6.052	2.020	2.006
149.004	6.793	2.020	2.002
149.054	7.744	2.020	1.997
149.104	8.244	2.020	1.987
149.155	8.355	2.020	1.987
149.205	8.327	2.020	1.982
149.254	8.387	2.020	1.980
149.305	8.404	2.020	1.980
149.355	8.396	2.020	1.980
149.405	8.401	2.020	1.980
149.455	8.400	2.020	1.976
149.505	8.451	2.020	1.983
149.555	8.356	2.020	1.989
149.605	8.296	2.020	1.990
149.655	8.301	2.020	1.994
149.705	8.247	2.020	2.000
149.755	8.186	2.020	2.005
149.805	8.143	2.020	2.013
149.855	8.058	2.020	2.018
149.905	8.011	2.020	2.023
149.955	7.827	2.020	2.027
150.006	7.458	2.020	2.031
150.055	6.870	2.020	2.031
150.105	6.335	2.020	2.031
150.155	5.811	2.020	2.032
150.205	5.182	2.020	2.031
150.256	4.677	2.020	2.029
150.305	4.227	2.020	2.027
150.355	3.884	2.020	2.022
150.406	3.838	2.020	2.015
150.456	4.149	2.020	2.008
150.506	4.839	2.020	1.998
150.556	6.024	2.020	1.990
150.606	7.597	2.020	1.985
150.656	8.365	2.020	1.977
150.705	8.445	2.020	1.970
150.756	8.511	2.020	1.968
150.806	8.525	2.020	1.968
150.856	8.521	2.020	1.967
150.906	8.532	2.020	1.969
150.956	8.507	2.020	1.972
151.006	8.476	2.020	1.968
151.056	8.532	2.020	1.974
151.106	8.449	2.020	1.978
151.156	8.415	2.020	1.974
151.207	8.466	2.020	1.983
151.257	8.349	2.020	1.988
151.306	8.316	2.020	1.987
151.357	8.329	2.020	1.996
151.407	8.226	2.020	2.005
151.457	8.134	2.020	2.012
151.506	8.062	2.020	2.020
151.557	7.957	2.020	2.026
151.607	7.608	2.020	2.033
151.657	6.895	2.020	2.036
151.708	6.044	2.020	2.041
151.758	4.968	2.020	2.041
151.808	3.943	2.020	2.039
151.858	2.991	2.020	2.037
151.909	2.142	2.020	2.033
151.959	1.531	2.020	2.026
152.009	1.309	2.020	2.012
152.059	1.844	2.020	2.004
152.109	2.708	2.020	1.995
152.158	4.031	2.020	1.982
152.208	6.075	2.020	1.974
152.258	8.435	2.020	1.968
152.308	8.529	2.020	1.967
152.358	8.529	2.020	1.969
152.408	8.511	2.020	1.968
152.458	8.518	2.020	1.968
152.509	8.525	2.020	1.967
152.558	8.528	2.020	1.969
152.608	8.508	2.020	1.967
152.658	8.530	2.020	1.967
152.708	8.531	2.020	1.970
152.758	8.495	2.020	1.969
152.808	8.513	2.020	1.971
152.858	8.491	2.020	1.973
152.908	8.471	2.020	1.972
152.958	8.487	2.020	1.976
153.008	8.426	2.020	1.978
153.058	8.412	2.020	1.982
153.108	8.377	2.020	1.982
153.159	8.380	2.020	1.994
153.209	8.239	2.020	1.999
153.259	8.200	2.020	2.006
153.310	8.129	2.020	2.012
153.360	8.072	2.020	2.020
153.409	7.955	2.020	2.023
153.460	7.790	2.020	2.031
153.510	7.137	2.020	2.036
153.559	6.269	2.020	2.037
153.609	5.398	2.020	2.035
153.659	4.692	2.020	2.036
153.709	3.866	2.020	2.033
153.760	3.225	2.020	2.030
153.810	2.768	2.020	2.025
153.859	2.549	2.020	2.016
153.909	2.860	2.020	2.006
153.959	3.633	2.020	1.996
154.009	4.920	2.020	1.985
154.059	6.791	2.020	1.977
154.110	8.449	2.020	1.971
154.159	8.507	2.020	1.967
154.210	8.533	2.020	1.966
154.260	8.547	2.020	1.967
154.309	8.528	2.020	1.968
154.359	8.519	2.020	1.968
154.410	8.521	2.020	1.967
154.460	8.532	2.020	1.966
154.509	8.542	2.020	1.968
154.560	8.521	2.020	1.966
154.610	8.539	2.020	1.969
154.660	8.502	2.020	1.969
154.710	8.511	2.020	1.969
154.760	8.507	2.020	1.974
154.810	8.449	2.020	1.975
154.860	8.451	2.020	1.979
154.911	8.405	2.020	1.981
154.960	8.382	2.020	1.985
155.010	8.340	2.020	1.989
155.061	8.301	2.020	1.996
155.110	8.222	2.020	2.001
155.161	8.178	2.020	2.007
155.211	8.121	2.020	2.015
155.260	8.030	2.020	2.019
155.310	7.997	2.020	2.025
155.361	7.709	2.020	2.031
155.411	7.101	2.020	2.032
155.460	6.509	2.020	2.033
155.511	5.877	2.020	2.034
155.561	5.132	2.020	2.033
155.611	4.514	2.020	2.031
155.661	4.010	2.020	2.029
155.711	3.559	2.020	2.024
155.761	3.417	2.020	2.017
155.811	3.650	2.020	2.010
155.861	4.238	2.020	2.001
155.911	5.305	2.020	1.988
155.961	7.068	2.020	1.978
156.012	8.442	2.020	1.973
156.062	8.481	2.020	1.967
156.111	8.542	2.020	1.966
156.162	8.546	2.020	1.966
156.212	8.543	2.020	1.968
156.262	8.516	2.020	1.969
156.313	8.513	2.020	1.970
156.363	8.502	2.020	1.969
156.413	8.516	2.020	1.969
156.463	8.510	2.020	1.971
156.514	8.491	2.020	1.971
156.563	8.494	2.020	1.973
156.613	8.471	2.020	1.973
156.664	8.475	2.020	1.974
156.714	8.455	2.020	1.979
156.763	8.400	2.020	1.979
156.814	8.414	2.020	1.984
156.864	8.346	2.020	1.988
156.913	8.306	2.020	1.993
156.964	8.261	2.020	1.998
157.014	8.207	2.020	2.003
157.063	8.162	2.020	2.010
157.113	8.090	2.020	2.015
157.164	8.041	2.020	2.021
157.213	7.942	2.020	2.023
157.263	7.774	2.020	2.025
157.313	7.525	2.020	2.028
157.362	7.092	2.020	2.028
157.413	6.701	2.020	2.028
157.463	6.304	2.020	2.028
157.513	5.927	2.020	2.026
157.563	5.667	2.020	2.026
157.613	5.339	2.020	2.025
157.663	5.126	2.020	2.023
157.713	5.010	2.020	2.017
157.763	5.213	2.020	2.014
157.813	5.525	2.020	2.007
157.863	6.252	2.020	2.001
157.913	7.247	2.020	1.997
157.963	8.239	2.020	1.989
158.013	8.328	2.020	1.985
158.063	8.355	2.020	1.980
158.113	8.406	2.020	1.978
158.163	8.424	2.020	1.976
158.214	8.447	2.020	1.975
158.263	8.450	2.020	1.975
158.313	8.445	2.020	1.976
158.364	8.442	2.020	1.975
158.414	8.446	2.020	1.976
158.464	8.434	2.020	1.978
158.514	8.420	2.020	1.979
158.565	8.411	2.020	1.985
158.615	8.343	2.020	1.988
158.664	8.315	2.020	1.991
158.715	8.287	2.020	1.997
158.764	8.222	2.020	2.002
158.814	8.167	2.020	2.008
158.864	8.104	2.020	2.012
158.914	8.069	2.020	2.017
158.964	8.018	2.020	2.024
159.015	7.725	2.020	2.026
159.065	7.420	2.020	2.029
159.114	6.921	2.020	2.026
159.165	6.668	2.020	2.029
159.215	6.180	2.020	2.028
159.264	5.821	2.020	2.027
159.315	5.498	2.020	2.026
159.365	5.204	2.020	2.019
159.415	5.348	2.020	2.018
159.465	5.434	2.020	2.015
159.516	5.747	2.020	2.008
159.566	6.436	2.020	2.005
159.616	7.197	2.020	1.996
159.666	8.262	2.020	1.990
159.715	8.314	2.020	1.986
159.765	8.345	2.020	1.978
159.815	8.432	2.020	1.956
159.865	8.682	2.020	1.977
159.915	8.388	2.020	1.974
159.965	8.461	2.020	1.972
160.015	8.487	2.020	1.977
160.065	8.419	2.020	1.976
160.116	8.441	2.020	1.979
160.166	8.404	2.020	1.978
160.215	8.421	2.020	1.984
160.266	8.345	2.020	1.989
160.316	8.299	2.020	1.992
160.366	8.269	2.020	1.998
160.416	8.213	2.020	2.004
160.466	8.146	2.020	2.013
160.516	8.049	2.020	2.020
160.566	7.989	2.020	2.024
160.617	7.750	2.020	2.032
160.667	7.051	2.020	2.037
160.717	6.155	2.020	2.039
160.767	5.210	2.020	2.040
160.818	4.197	2.020	2.020
160.868	4.453	2.020	2.038
160.918	3.311	2.020	2.031
160.969	2.905	2.020	2.026
161.018	2.647	2.020	2.018
161.068	2.864	2.020	2.008
161.119	3.577	2.020	1.995
161.169	4.940	2.020	1.986
161.218	6.735	2.020	1.977
161.269	8.450	2.020	1.965
161.319	8.569	2.020	1.967
161.368	8.531	2.020	1.965
161.418	8.553	2.020	1.967
161.468	8.530	2.020	1.967
161.518	8.526	2.020	1.967
161.568	8.535	2.020	1.967
161.618	8.534	2.020	1.967
161.668	8.530	2.020	1.967
161.718	8.534	2.020	1.970
161.769	8.498	2.020	1.968
161.840	8.519	2.020	1.971
161.890	8.482	2.020	1.973
161.940	8.461	2.020	1.977
161.989	8.418	2.020	1.978
162.040	8.414	2.020	1.982
162.090	8.377	2.020	1.987
162.139	8.325	2.020	1.985
162.189	8.354	2.020	1.991
162.239	8.277	2.020	2.001
162.289	8.168	2.020	2.005
162.339	8.137	2.020	2.009
162.389	8.103	2.020	2.019
162.439	7.992	2.020	2.023
162.489	7.829	2.020	2.027
162.540	7.437	2.020	2.028
162.589	7.037	2.020	2.030
162.639	6.541	2.020	2.023
162.689	6.490	2.020	2.026
162.739	6.158	2.020	2.010
162.789	6.831	2.020	2.017
162.839	6.899	2.020	2.018
162.888	6.984	2.020	2.018
162.939	7.099	2.020	2.008
162.989	7.793	2.020	2.012
163.039	8.073	2.020	2.013
163.089	8.073	2.020	2.014
163.139	0.889	2.020	2.012
163.193	0.949	2.020	2.014
163.243	0.957	2.020	2.015
163.293	0.974	2.020	2.011
163.342	1.068	2.020	1.990
163.393	1.454	2.020	2.000
163.443	1.400	2.020	1.992
163.492	1.647	2.020	1.983
163.543	1.925	2.020	1.978
163.593	2.185	2.020	1.973
163.643	2.463	2.020	1.971
163.693	2.732	2.020	1.970
163.743	2.985	2.020	1.969
163.792	3.246	2.020	1.968
163.843	3.520	2.020	1.969
163.892	3.761	2.020	1.969
163.942	4.019	2.020	1.968
163.993	4.285	2.020	1.968
164.042	4.542	2.020	1.970
164.092	4.768	2.020	1.967
164.143	5.070	2.020	1.965
164.193	5.367	2.020	1.969
164.242	5.565	2.020	1.968
164.293	5.844	2.020	1.963
164.343	6.195	2.020	1.970
164.392	6.354	2.020	1.968
164.442	6.642	2.020	1.971
164.492	6.859	2.020	1.969
164.541	7.144	2.020	1.972
164.592	7.342	2.020	1.968
164.642	7.650	2.020	1.967
164.691	7.929	2.020	1.957
164.741	8.359	2.020	1.962
164.791	8.561	2.020	1.969
164.841	8.498	2.020	1.969
164.892	8.515	2.020	1.957
164.941	8.655	2.020	1.965
164.991	8.534	2.020	1.966
165.042	8.538	2.020	1.971
165.092	8.481	2.020	1.961
165.141	8.605	2.020	1.970
165.192	8.488	2.020	1.969
165.242	8.508	2.020	1.975
165.292	8.437	2.020	1.976
165.342	8.433	2.020	1.980
165.393	8.397	2.020	1.984
165.443	8.352	2.020	1.988
165.493	8.314	2.020	1.991
165.543	8.279	2.020	1.995
165.593	8.239	2.020	2.003
165.643	8.161	2.020	2.008
165.693	8.108	2.020	2.016
165.743	8.029	2.020	2.020
165.793	7.989	2.020	2.024
165.843	7.937	2.020	2.026
165.894	7.881	2.020	2.028
165.944	7.832	2.020	2.027
165.994	7.808	2.020	2.020
166.045	7.888	2.020	2.015
166.095	7.968	2.020	2.023
166.144	7.840	2.020	2.024
166.194	7.820	2.020	2.025
166.244	7.784	2.020	2.023
166.294	7.798	2.020	2.024
166.344	7.767	2.020	2.013
166.395	7.938	2.020	2.024
166.445	7.765	2.020	2.020
166.495	7.824	2.020	2.022
166.546	7.787	2.020	2.024
166.595	7.741	2.020	2.023
166.645	7.752	2.020	2.020
166.696	7.779	2.020	2.019
166.746	7.785	2.020	2.021
166.796	7.758	2.020	2.017
166.846	7.828	2.020	2.022
166.897	7.741	2.020	2.023
166.947	7.735	2.020	2.022
166.996	7.738	2.020	2.023
167.047	7.711	2.020	2.020
167.097	7.744	2.020	2.022
167.147	7.710	2.020	2.021
167.197	7.716	2.020	2.020
167.248	7.720	2.020	2.023
167.297	7.678	2.020	2.020
167.347	7.713	2.020	2.020
167.398	7.707	2.020	2.016
167.447	7.779	2.020	2.021
167.497	7.702	2.020	2.019
167.548	7.735	2.020	2.022
167.598	7.695	2.020	2.023
167.648	7.675	2.020	2.023
167.699	7.663	2.020	2.021
167.749	7.671	2.020	2.016
167.799	7.756	2.020	2.023
167.849	7.638	2.020	2.022
167.899	7.664	2.020	2.021
167.949	7.657	2.020	2.015
167.999	7.760	2.020	2.021
168.050	7.662	2.020	2.018
168.100	7.723	2.020	2.022
168.149	7.665	2.020	2.021
168.199	7.675	2.020	2.022
168.250	7.651	2.020	2.021
168.299	7.659	2.020	2.018
168.349	7.696	2.020	2.016
168.399	7.737	2.020	2.022
168.448	7.646	2.020	2.021
168.499	7.669	2.020	2.018
168.549	7.705	2.020	2.015
168.599	7.763	2.020	2.021
168.649	7.681	2.020	2.019
168.700	7.715	2.020	2.018
168.750	7.742	2.020	2.022
168.800	7.683	2.020	2.018
168.851	7.737	2.020	2.021
168.901	7.689	2.020	2.020
168.950	7.710	2.020	2.020
169.001	7.706	2.020	2.020
169.051	7.700	2.020	2.022
169.100	7.676	2.020	2.021
169.150	7.681	2.020	2.021
169.201	7.675	2.020	2.020
169.251	7.691	2.020	2.020
169.301	7.679	2.020	2.020
169.352	7.689	2.020	2.018
169.401	7.722	2.020	2.021
169.451	7.668	2.020	2.018
169.501	7.729	2.020	2.020
169.551	7.688	2.020	2.020
169.601	7.702	2.020	1.997
169.652	8.095	2.020	1.967
169.702	8.590	2.020	1.972
169.752	8.468	2.020	1.973
169.802	8.474	2.020	1.975
169.853	8.444	2.020	1.978
169.903	8.418	2.020	1.981
169.953	8.380	2.020	1.986
170.003	8.336	2.020	1.995
170.053	8.235	2.020	2.006
170.103	8.116	2.020	2.019
170.153	7.983	2.020	2.035
170.203	7.736	2.020	2.051
170.253	7.420	2.020	2.068
170.302	7.017	2.020	2.080
170.352	6.606	2.020	2.086
170.402	6.226	2.020	2.084
170.453	5.942	2.020	2.078
170.502	5.723	2.020	2.076
170.552	5.455	2.020	2.066
170.603	5.343	2.020	2.056
170.653	5.260	2.020	2.048
170.702	5.205	2.020	2.034
170.752	5.272	2.020	2.024
170.803	5.346	2.020	2.014
170.852	5.482	2.020	2.003
170.902	5.685	2.020	1.995
170.951	5.871	2.020	1.988
171.001	6.097	2.020	1.982
171.052	6.357	2.020	1.978
171.101	6.596	2.020	1.974
171.151	6.859	2.020	1.972
171.201	7.130	2.020	1.968
171.251	7.422	2.020	1.969
171.301	7.663	2.020	1.968
171.351	7.936	2.020	1.968
171.402	8.189	2.020	1.969
171.451	8.437	2.020	1.967
171.502	8.534	2.020	1.970
171.552	8.491	2.020	1.970
171.602	8.498	2.020	1.969
171.652	8.517	2.020	1.971
171.703	8.491	2.020	1.972
171.753	8.483	2.020	1.973
171.803	8.469	2.020	1.974
171.853	8.456	2.020	1.971
171.903	8.494	2.020	1.979
171.953	8.390	2.020	1.981
172.003	8.387	2.020	1.984
172.053	8.359	2.020	1.986
172.103	8.341	2.020	1.992
172.153	8.266	2.020	1.997
172.204	8.225	2.020	2.003
172.254	8.151	2.020	2.004
172.303	8.153	2.020	2.010
172.354	8.085	2.020	2.014
172.404	8.050	2.020	2.021
172.453	7.975	2.020	2.024
172.504	7.924	2.020	2.023
172.554	7.937	2.020	2.025
172.604	7.887	2.020	2.024
172.654	7.884	2.020	2.023
172.704	7.880	2.020	2.024
172.754	7.837	2.020	2.022
172.804	7.851	2.020	2.023
172.854	7.824	2.020	2.025
172.904	7.772	2.020	2.022
172.954	7.810	2.020	2.024
173.005	7.756	2.020	2.018
173.055	7.840	2.020	2.025
173.105	7.721	2.020	2.022
173.156	7.759	2.020	2.022
173.206	7.738	2.020	2.024
173.256	7.704	2.020	2.023
173.306	7.699	2.020	2.023
173.357	7.677	2.020	2.023
173.407	7.667	2.020	2.022
173.457	7.667	2.020	2.022
173.507	7.660	2.020	2.020
173.558	7.673	2.020	2.022
173.607	7.635	2.020	2.022
173.657	7.638	2.020	2.018
173.708	7.689	2.020	2.022
173.758	7.630	2.020	2.020
173.807	7.651	2.020	2.020
173.858	7.657	2.020	2.021
173.908	7.635	2.020	2.023
173.958	7.604	2.020	2.019
174.009	7.654	2.020	2.021
174.059	7.618	2.020	2.020
174.109	7.634	2.020	2.015
174.159	7.714	2.020	2.021
174.209	7.634	2.020	2.019
174.259	7.663	2.020	2.020
174.308	7.658	2.020	2.019
174.359	7.676	2.020	2.022
174.408	7.630	2.020	2.019
174.458	7.666	2.020	2.019
174.509	7.675	2.020	2.016
174.559	7.736	2.020	2.020
174.608	7.668	2.020	2.020
174.658	7.676	2.020	2.020
174.707	7.673	2.020	2.019
174.757	7.699	2.020	2.020
174.808	7.674	2.020	2.023
174.857	7.636	2.020	2.018
174.907	7.710	2.020	2.019
174.958	7.695	2.020	2.020
175.008	7.675	2.020	2.021
175.058	7.670	2.020	2.019
175.109	7.700	2.020	2.016
175.159	7.752	2.020	2.020
175.209	7.700	2.020	2.019
175.259	7.720	2.020	2.020
175.309	7.712	2.020	2.015
175.359	7.798	2.020	2.019
175.409	7.741	2.020	2.020
175.460	7.738	2.020	2.019
175.509	7.756	2.020	2.020
175.559	7.741	2.020	2.021
175.610	7.721	2.020	2.020
175.660	7.738	2.020	2.022
175.710	7.707	2.020	2.020
175.760	7.735	2.020	2.018
175.810	7.760	2.020	2.021
175.860	7.722	2.020	2.018
175.910	7.762	2.020	2.021
175.961	7.720	2.020	2.020
176.011	7.737	2.020	2.020
176.061	7.734	2.020	2.019
176.111	7.756	2.020	2.022
176.161	7.709	2.020	2.021
176.211	7.717	2.020	2.020
176.261	7.733	2.020	2.020
176.312	7.720	2.020	2.022
176.362	7.692	2.020	2.019
176.411	7.734	2.020	2.020
176.462	7.722	2.020	2.019
176.512	7.730	2.020	2.022
176.562	7.693	2.020	2.017
176.612	7.777	2.020	2.022
176.662	7.696	2.020	2.021
176.712	7.703	2.020	2.018
176.763	7.750	2.020	2.019
176.813	7.731	2.020	2.020
176.862	7.725	2.020	2.019
176.913	7.742	2.020	2.010
176.963	7.906	2.020	2.021
177.013	7.744	2.020	2.020
177.063	7.784	2.020	2.019
177.114	7.793	2.020	2.020
177.164	7.785	2.020	2.020
177.214	7.776	2.020	2.021
177.264	7.764	2.020	2.016
177.315	7.849	2.020	2.020
177.364	7.787	2.020	2.018
177.414	7.834	2.020	2.021
177.465	7.790	2.020	2.021
177.514	7.787	2.020	2.018
177.564	7.837	2.020	2.020
177.615	7.808	2.020	2.015
177.665	7.896	2.020	2.020
177.714	7.818	2.020	2.020
177.765	7.832	2.020	2.016
177.815	7.903	2.020	1.991
177.865	8.331	2.020	2.019
177.916	7.954	2.020	2.020
177.966	8.001	2.020	2.020
178.016	7.998	2.020	2.020
178.066	7.992	2.020	2.021
178.117	7.974	2.020	2.015
178.167	8.064	2.020	2.022
178.217	7.960	2.020	2.021
178.267	7.971	2.020	2.019
178.318	8.007	2.020	2.021
178.367	7.963	2.020	2.020
178.417	7.984	2.020	2.016
178.468	8.053	2.020	2.017
178.518	8.033	2.020	2.019
178.567	7.999	2.020	2.019
178.618	8.005	2.020	2.021
178.668	7.980	2.020	2.023
178.717	7.945	2.020	2.020
178.768	7.983	2.020	2.020
178.818	7.977	2.020	1.999
178.867	8.258	2.020	2.016
178.917	8.007	2.020	2.017
178.967	8.026	2.020	2.020
179.016	7.987	2.020	2.018
179.067	8.027	2.020	2.021
179.117	7.971	2.020	2.018
179.167	8.021	2.020	2.019
179.218	8.011	2.020	2.021
179.268	7.973	2.020	2.020
179.318	7.994	2.020	2.020
179.368	7.985	2.020	2.019
179.419	8.006	2.020	2.021
179.469	7.968	2.020	2.021
179.519	7.971	2.020	2.021
179.569	7.960	2.020	2.020
179.619	7.976	2.020	2.022
179.668	7.939	2.020	2.018
179.719	7.999	2.020	2.018
179.769	8.006	2.020	2.021
179.819	7.955	2.020	2.002
179.868	8.221	2.020	2.018
179.919	7.986	2.020	2.022
179.969	7.961	2.020	2.022
180.019	7.959	2.020	2.023
180.069	7.926	2.020	2.019
180.118	7.989	2.020	2.021
180.168	7.953	2.020	2.020
180.217	7.970	2.020	2.020
180.267	7.958	2.020	2.018
180.318	7.995	2.020	2.019
180.367	7.978	2.020	2.020
180.416	7.972	2.020	2.020
180.467	7.967	2.020	2.021
180.517	7.960	2.020	2.022
180.567	7.935	2.020	2.021
180.618	7.944	2.020	2.018
180.668	7.981	2.020	2.022
180.718	7.927	2.020	2.025
180.768	7.875	2.020	2.021
180.818	7.913	2.020	2.006
180.868	8.155	2.020	2.021
180.918	7.943	2.020	2.021
180.969	7.967	2.020	2.023
181.018	7.928	2.020	2.023
181.068	7.922	2.020	2.019
181.119	7.963	2.020	2.024
181.169	7.882	2.020	2.024
181.218	7.877	2.020	2.023
181.269	7.869	2.020	2.018
181.319	7.941	2.020	2.022
181.369	7.869	2.020	2.021
181.419	7.878	2.020	2.023
181.469	7.848	2.020	2.023
181.519	7.837	2.020	2.023
181.569	7.817	2.020	2.022
181.620	7.825	2.020	2.019
181.669	7.858	2.020	2.022
181.719	7.807	2.020	2.022
181.770	7.808	2.020	2.020
